File format V 1.0
mar. 14. juin 10:37:35 2016
Operator : 
Comments : 

=============================================
SpectroFluorometer parameters
Mode : 3D measurement
Data : Fluorescence
Phospho. : Ordinary
Spectrum : Fluorescence

Scan speed : 2400 nm/mn
Response : 100 ms
PM Voltage : 700 V
Shutter : On

Lambda Ex. Start : 203
Lambda Ex. End : 603
Lambda Ex. Step : 5
Ex. Slit : 5 nm

Lambda Em. Start : 200
Lambda Em. End : 600
Lambda Em. Step : 5
Em. Slit : 5 nm

Repetition : 1
Decal lambda em : 10
=============================================
DATA
Ex : 203
200 13.3348
205 12.028
210 13.5307
215 15.1595
220 13.6749
225 14.0402
230 16.5633
235 16.9292
240 16.0289
245 13.5267
250 15.0785
255 15.7247
260 16.972
265 17.4974
270 14.7626
275 18.998
280 17.3227
285 23.038
290 22.0453
295 25.8415
300 25.5963
305 29.5759
310 29.8602
315 29.4783
320 31.5751
325 30.0231
330 33.4522
335 35.4009
340 44.2378
345 43.1672
350 38.2205
355 39.842
360 47.9204
365 47.2735
370 45.3047
375 45.5093
380 43.7266
385 48.7108
390 50.2964
395 53.414
400 56.711
405 52.3917
410 62.8032
415 55.7649
420 52.5243
425 56.3408
430 52.6006
435 56.0932
440 51.8969
445 59.7068
450 63.0993
455 58.1552
460 60.1788
465 66.9656
470 58.5673
475 56.8843
480 52.989
485 44.4413
490 53.0338
495 47.2435
500 48.6485
505 48.6579
510 42.8198
515 48.4375
520 49.6927
525 54.7521
530 47.0513
535 47.0447
540 57.0431
545 43.4755
550 47.4639
555 46.2676
560 41.7324
565 42.8557
570 44.7233
575 41.7009
580 40.8489
585 35.3822
590 34.0375
595 34.2663
600 26.793
Ex : 208
200 12.4353
205 16.7097
210 14.68
215 15.8066
220 16.3548
225 15.1075
230 17.2029
235 18.1144
240 17.9722
245 20.9685
250 15.6833
255 16.3421
260 18.3561
265 15.063
270 16.9802
275 20.8125
280 19.9494
285 21.3619
290 24.6696
295 26.8655
300 20.4377
305 25.7095
310 27.3238
315 31.8796
320 32.3274
325 34.2277
330 31.3009
335 38.3208
340 33.4325
345 36.1012
350 43.7565
355 42.3014
360 46.1413
365 46.8256
370 52.5156
375 46.0607
380 43.2645
385 46.4494
390 48.661
395 55.0171
400 57.3512
405 57.0812
410 53.8296
415 61.7288
420 57.7417
425 50.3852
430 55.3075
435 53.7445
440 54.6895
445 54.5174
450 55.3651
455 61.4586
460 53.231
465 58.8029
470 59.3209
475 47.7928
480 59.2845
485 56.0617
490 52.0006
495 47.565
500 48.1386
505 49.2274
510 55.119
515 46.3672
520 46.1526
525 49.1907
530 46.6546
535 55.3408
540 48.2134
545 40.0369
550 50.3244
555 48.6738
560 49.6255
565 44.0995
570 48.6428
575 42.872
580 41.358
585 36.0764
590 33.7952
595 36.9164
600 36.252
Ex : 213
200 15.9336
205 18.6594
210 18.6419
215 16.1102
220 13.8639
225 16.2582
230 15.402
235 15.63
240 12.2425
245 21.5586
250 16.3278
255 15.2508
260 18.3897
265 21.2499
270 19.9374
275 21.826
280 21.1672
285 25.4827
290 24.273
295 22.7986
300 23.6191
305 23.8786
310 27.5622
315 27.2559
320 32.5161
325 35.3914
330 33.8937
335 33.0253
340 36.2562
345 39.0539
350 38.043
355 40.2008
360 41.1472
365 48.5412
370 42.8438
375 49.1088
380 41.2029
385 52.2588
390 55.4101
395 51.6117
400 47.5449
405 52.3792
410 56.0491
415 58.9337
420 62.0521
425 60.2784
430 57.1704
435 54.0872
440 59.3987
445 60.3147
450 53.3811
455 55.2157
460 61.9751
465 67.3184
470 58.099
475 52.2823
480 54.3742
485 52.1378
490 53.1425
495 48.1945
500 52.2502
505 46.7674
510 46.7164
515 51.9516
520 50.9811
525 47.2524
530 48.0347
535 52.4153
540 45.6324
545 45.1369
550 45.812
555 47.5169
560 48.0739
565 46.5054
570 50.2306
575 40.6204
580 46.2345
585 38.3436
590 33.345
595 37.4584
600 20.9233
Ex : 218
200 16.0969
205 15.9312
210 15.1599
215 12.4974
220 22.7101
225 17.1321
230 19.9552
235 19.3703
240 15.8174
245 15.3969
250 15.5926
255 18.962
260 19.2628
265 15.3712
270 18.0082
275 20.9563
280 21.0656
285 21.0116
290 24.9006
295 28.3287
300 28.5266
305 29.1798
310 28.5774
315 28.7351
320 35.5125
325 34.2366
330 34.5294
335 34.1677
340 33.8919
345 39.7703
350 42.9
355 40.9366
360 37.2564
365 47.9705
370 44.7204
375 52.6287
380 51.1474
385 50.8096
390 48.1159
395 50.6949
400 57.5749
405 50.8187
410 58.5199
415 57.9539
420 61.4552
425 53.6578
430 54.2755
435 52.8954
440 56.3074
445 55.3974
450 55.6309
455 62.7509
460 61.2747
465 68.3618
470 64.8322
475 55.271
480 57.8737
485 59.041
490 58.1185
495 46.7
500 47.1921
505 46.4035
510 44.5059
515 46.7122
520 40.6009
525 53.0741
530 49.2216
535 52.2996
540 50.5391
545 48.2969
550 50.0979
555 48.1444
560 46.0305
565 45.1173
570 52.0007
575 45.135
580 37.956
585 39.8346
590 39.6689
595 33.9505
600 47.9964
Ex : 223
200 15.0785
205 15.2898
210 14.8035
215 15.8559
220 17.7125
225 16.6901
230 14.905
235 15.6559
240 14.6274
245 16.0173
250 15.3373
255 14.2401
260 17.3124
265 16.4682
270 20.6454
275 18.318
280 21.0281
285 22.207
290 20.6568
295 25.4
300 23.2219
305 21.0323
310 31.5865
315 25.9003
320 32.8124
325 30.1307
330 33.1384
335 36.9011
340 38.5444
345 36.4059
350 35.3148
355 41.6965
360 38.5751
365 47.7778
370 52.3273
375 47.8036
380 47.7701
385 48.7061
390 48.9316
395 50.909
400 47.8898
405 55.2535
410 55.2859
415 53.8405
420 57.8635
425 54.162
430 50.6075
435 55.3585
440 49.2339
445 54.498
450 56.9487
455 55.8559
460 55.2785
465 65.0897
470 55.854
475 53.4725
480 54.8262
485 47.5939
490 51.3737
495 48.7376
500 46.3502
505 41.8516
510 49.2394
515 43.0473
520 46.9973
525 50.5563
530 51.5925
535 48.8579
540 48.7418
545 54.6187
550 45.4364
555 50.4394
560 48.4911
565 45.3431
570 43.1492
575 51.3797
580 47.3919
585 37.8502
590 36.1307
595 42.4937
600 23.1505
Ex : 228
200 15.161
205 14.6836
210 17.5881
215 15.4346
220 14.8141
225 15.1103
230 13.1887
235 14.2798
240 18.8324
245 13.7096
250 16.9685
255 16.4965
260 17.8215
265 19.0517
270 19.0847
275 16.8327
280 24.3444
285 19.2729
290 24.8192
295 30.7918
300 27.1117
305 25.1174
310 30.0878
315 30.1089
320 30.042
325 32.8291
330 33.3719
335 40.8768
340 39.491
345 42.0859
350 35.4323
355 40.3402
360 41.2951
365 41.9772
370 45.9607
375 44.9719
380 44.7117
385 45.7454
390 55.102
395 45.0833
400 50.8456
405 49.5042
410 49.4356
415 45.5414
420 47.9553
425 55.5946
430 54.2922
435 52.0596
440 56.5627
445 53.9849
450 66.047
455 94.3676
460 96.6813
465 71.7525
470 58.0962
475 63.6738
480 59.1196
485 53.4526
490 50.6514
495 47.2442
500 44.8406
505 45.6683
510 48.3131
515 49.9551
520 55.0255
525 55.9532
530 50.5439
535 46.8426
540 46.3258
545 55.2975
550 52.2699
555 56.2459
560 50.6798
565 46.8545
570 46.3235
575 47.4793
580 45.1935
585 36.1347
590 39.2734
595 36.5183
600 32.6249
Ex : 233
200 10.6787
205 12.3635
210 11.5606
215 14.3981
220 16.7644
225 24.5528
230 29.8889
235 18.0253
240 12.0379
245 13.3177
250 13.9122
255 14.6287
260 18.4991
265 18.2991
270 17.9111
275 19.5034
280 18.4881
285 22.9568
290 20.7001
295 22.5845
300 27.4107
305 28.2379
310 26.8499
315 28.1135
320 35.3738
325 30.6765
330 31.4231
335 38.7453
340 43.8451
345 39.8696
350 39.7636
355 42.2932
360 38.316
365 41.8557
370 41.0974
375 43.9253
380 45.8672
385 44.8655
390 52.0948
395 45.6139
400 45.921
405 48.7682
410 54.3724
415 51.5139
420 46.1655
425 50.0726
430 47.2652
435 52.3092
440 49.8508
445 52.2211
450 52.3377
455 75.956
460 172.088
465 256.362
470 188.67
475 89.6128
480 57.6062
485 50.0291
490 50.0166
495 52.0073
500 45.0857
505 41.1203
510 37.9367
515 47.3401
520 51.3099
525 48.2689
530 52.2659
535 49.9034
540 52.7398
545 53.4135
550 52.8309
555 53.9556
560 47.679
565 49.3248
570 48.1191
575 48.4369
580 44.6445
585 43.2233
590 38.5299
595 34.8445
600 40.078
Ex : 238
200 12.9823
205 12.8251
210 15.1373
215 11.8564
220 9.8013
225 12.0564
230 45.6972
235 65.2888
240 25.6113
245 13.3143
250 13.3953
255 14.0135
260 17.9207
265 20.4673
270 20.4381
275 15.5704
280 17.9252
285 24.127
290 23.5316
295 24.3348
300 26.4665
305 23.9738
310 25.5948
315 30.1173
320 31.2206
325 28.5835
330 34.9054
335 32.5878
340 35.2497
345 36.7249
350 39.4176
355 39.699
360 38.7328
365 42.2479
370 41.5568
375 42.1972
380 47.0518
385 45.9495
390 52.0489
395 51.4043
400 49.205
405 46.7616
410 43.8039
415 47.0687
420 44.8705
425 47.2701
430 44.8718
435 43.4099
440 47.089
445 45.3365
450 46.383
455 53.9543
460 63.4041
465 173.467
470 405.652
475 518.728
480 316.551
485 96.4968
490 54.0554
495 43.5354
500 46.2082
505 43.0076
510 48.9248
515 56.1475
520 50.988
525 53.0391
530 53.2779
535 52.2485
540 49.9266
545 49.6557
550 48.6922
555 49.4967
560 51.3244
565 51.9261
570 49.2068
575 42.8661
580 39.5763
585 41.6089
590 40.8065
595 35.5699
600 55.9793
Ex : 243
200 11.9761
205 10.2884
210 10.6037
215 11.1771
220 10.0849
225 10.5108
230 19.3056
235 70.8483
240 98.1664
245 32.0717
250 13.5833
255 16.1815
260 16.0261
265 17.9795
270 19.6477
275 19.5226
280 17.6144
285 19.505
290 23.4585
295 20.621
300 22.5789
305 23.4504
310 23.5639
315 27.2369
320 28.6179
325 28.5226
330 32.8579
335 28.6545
340 33.9398
345 35.3198
350 35.7583
355 34.3469
360 33.8941
365 34.3477
370 35.8093
375 38.1737
380 38.3617
385 45.6558
390 42.167
395 46.632
400 45.2264
405 44.9126
410 42.1963
415 43.1128
420 36.7987
425 42.7854
430 41.3431
435 40.5151
440 40.474
445 41.0993
450 42.8259
455 47.3202
460 51.5731
465 53.3673
470 72.5091
475 277.241
480 576.969
485 608.053
490 355.335
495 98.7671
500 45.7491
505 32.7888
510 41.4661
515 44.9331
520 56.4736
525 57.2293
530 53.6218
535 52.792
540 46.1214
545 51.0004
550 44.0176
555 47.2815
560 44.072
565 44.1647
570 43.9296
575 42.1349
580 37.0934
585 41.4524
590 33.5397
595 36.4414
600 39.7058
Ex : 248
200 10.5943
205 10.2006
210 6.97034
215 7.75035
220 10.3686
225 8.91447
230 8.17963
235 15.0938
240 94.2184
245 119.459
250 36.4963
255 14.9261
260 16.677
265 16.4721
270 17.3747
275 18.2956
280 15.9544
285 19.3163
290 18.3855
295 18.472
300 21.3854
305 19.8494
310 23.164
315 27.71
320 24.706
325 24.9039
330 29.4644
335 28.2993
340 30.4781
345 31.9784
350 34.3465
355 30.9094
360 32.0448
365 33.9095
370 31.9273
375 36.4274
380 37.0385
385 39.5648
390 38.8857
395 40.4113
400 38.9908
405 40.6244
410 36.7517
415 35.9853
420 37.8881
425 36.5481
430 38.0599
435 37.3987
440 33.0036
445 35.9655
450 33.7909
455 36.8004
460 37.9184
465 41.9877
470 38.5299
475 38.5458
480 83.1041
485 335.158
490 683.621
495 636.24
500 328.983
505 83.0866
510 43.5447
515 47.5791
520 50.9459
525 56.3414
530 58.7065
535 53.1929
540 54.1148
545 51.98
550 47.4186
555 48.7034
560 47.6312
565 42.2524
570 40.7215
575 39.0168
580 36.8269
585 37.9767
590 32.449
595 33.0555
600 36.3296
Ex : 253
200 6.63804
205 8.586
210 8.56459
215 7.4765
220 8.00454
225 7.21565
230 6.27497
235 8.45718
240 17.2528
245 96.5205
250 203.493
255 85.5768
260 25.9134
265 17.7913
270 18.4703
275 17.8669
280 16.3274
285 16.5205
290 16.7076
295 19.1651
300 17.7514
305 21.0715
310 20.3398
315 20.65
320 20.6218
325 23.3315
330 26.8601
335 23.4665
340 25.7323
345 27.7362
350 27.5065
355 29.5605
360 27.3467
365 29.3615
370 28.3311
375 31.8324
380 29.5368
385 29.6562
390 29.5029
395 34.9485
400 32.5791
405 33.6377
410 31.4643
415 31.0734
420 31.2969
425 33.7931
430 31.2585
435 30.0614
440 28.9228
445 31.249
450 29.3649
455 29.7071
460 34.9027
465 37.0874
470 33.0565
475 31.9832
480 32.5152
485 29.6336
490 88.0169
495 356.637
500 742.638
505 1258.5
510 910.846
515 229.93
520 83.2657
525 64.6919
530 57.8249
535 59.3753
540 58.1638
545 53.0292
550 53.2184
555 47.3609
560 42.6636
565 42.6489
570 38.673
575 36.1212
580 34.0593
585 33.0876
590 31.9827
595 28.0129
600 34.6077
Ex : 258
200 5.49271
205 7.30888
210 7.63529
215 6.97964
220 8.25339
225 5.61192
230 8.89566
235 9.31337
240 8.46513
245 18.2905
250 403.997
255 1284.91
260 405.033
265 65.0221
270 23.3672
275 20.9576
280 19.2328
285 17.8937
290 19.0289
295 18.0322
300 20.459
305 19.378
310 20.9488
315 22.3547
320 22.9934
325 25.8028
330 24.1323
335 24.8071
340 24.3872
345 25.6775
350 27.3704
355 25.0255
360 27.3284
365 29.0165
370 24.6152
375 26.9136
380 25.8106
385 27.1605
390 29.9135
395 27.2864
400 27.9246
405 29.2811
410 29.3783
415 29.7423
420 30.2636
425 28.3224
430 26.5811
435 26.2457
440 26.4484
445 26.989
450 28.8827
455 27.8904
460 29.9946
465 32.9146
470 35.0532
475 29.3454
480 30.9048
485 29.899
490 29.2622
495 28.7126
500 101.95
505 993.126
510 4428.96
515 8512.5
520 4411.23
525 820.086
530 168.174
535 81.3202
540 62.2053
545 58.0709
550 57.2367
555 54.5233
560 52.4181
565 51.7859
570 41.0932
575 40.4807
580 37.7084
585 33.107
590 32.8191
595 30.0057
600 32.482
Ex : 263
200 5.25356
205 6.21046
210 6.48441
215 7.28298
220 6.75456
225 5.80558
230 6.92026
235 6.35527
240 7.02076
245 9.81545
250 80.0547
255 1623.51
260 2919.11
265 858.51
270 124.644
275 36.0414
280 23.1984
285 23.3607
290 21.9744
295 20.5853
300 21.3619
305 20.1097
310 21.0325
315 22.2982
320 22.9999
325 22.4246
330 20.5671
335 23.017
340 24.0028
345 27.3227
350 25.2814
355 26.7226
360 27.1083
365 24.3435
370 23.3437
375 24.0478
380 25.8538
385 23.319
390 24.7959
395 26.189
400 27.4665
405 26.2357
410 27.6008
415 25.0615
420 25.4104
425 25.0064
430 23.4409
435 25.7896
440 25.4219
445 23.9637
450 23.6425
455 23.9892
460 28.3973
465 28.7055
470 28.3207
475 31.0057
480 29.6731
485 29.2363
490 28.9465
495 31.116
500 34.2173
505 41.4505
510 545.876
515 5193.65
520 9999.9
525 9999.9
530 7283.48
535 1278.8
540 232.534
545 93.3079
550 70.8584
555 62.8168
560 55.9098
565 54.2296
570 54.4311
575 49.3207
580 43.2116
585 37.9071
590 34.5882
595 29.8403
600 51.1465
Ex : 268
200 5.06135
205 5.97973
210 6.54586
215 5.69921
220 6.72706
225 5.47643
230 6.71992
235 7.41213
240 8.41036
245 9.48994
250 11.9588
255 178.503
260 2961.05
265 5319.5
270 1395.26
275 188.667
280 43.3673
285 27.5134
290 26.2441
295 22.5902
300 21.8
305 22.3788
310 22.3597
315 22.7356
320 25.3654
325 24.92
330 23.8854
335 24.5385
340 24.1878
345 26.2967
350 24.7575
355 22.7484
360 24.3434
365 23.7262
370 23.2155
375 22.5859
380 20.9413
385 21.2338
390 23.6239
395 23.2943
400 21.6014
405 20.8316
410 22.4225
415 22.3688
420 22.8996
425 20.4986
430 21.5003
435 21.0928
440 20.4385
445 21.5793
450 21.6483
455 22.2828
460 26.6323
465 26.9627
470 25.489
475 25.1957
480 23.9309
485 25.2937
490 27.8552
495 27.0964
500 27.7535
505 30.386
510 35.7927
515 62.6686
520 1205.97
525 9627.16
530 9999.9
535 9999.9
540 8492
545 1483.29
550 256.57
555 98.108
560 65.8923
565 58.691
570 54.8726
575 51.5173
580 54.7175
585 49.0395
590 45.1314
595 36.4321
600 40.7756
Ex : 273
200 4.74697
205 5.19075
210 5.16953
215 4.90138
220 4.98072
225 6.02966
230 6.35873
235 5.92598
240 7.30797
245 7.60313
250 9.52489
255 12.2244
260 252.768
265 4073.16
270 6672.17
275 1618.67
280 216.191
285 48.5759
290 28.7118
295 25.7038
300 26.8202
305 24.099
310 23.2129
315 22.1023
320 25.2384
325 23.9565
330 23.1707
335 22.3274
340 24.4586
345 23.2865
350 22.4346
355 21.3908
360 21.1632
365 21.8534
370 20.7772
375 20.0042
380 19.7077
385 20.0206
390 20.7572
395 20.5058
400 19.0268
405 18.3454
410 20.0201
415 19.188
420 20.1637
425 19.612
430 19.6334
435 18.3669
440 18.4171
445 20.2468
450 20.727
455 21.82
460 21.0708
465 21.345
470 21.8597
475 21.8359
480 22.341
485 22.0503
490 22.4236
495 24.3447
500 24.2255
505 25.954
510 27.5687
515 33.4693
520 45.528
525 86.3865
530 1895.92
535 9999.9
540 9999.9
545 9999.9
550 8616.57
555 1467.84
560 249.966
565 93.7165
570 68.9697
575 56.0115
580 50.6478
585 48.0097
590 46.6964
595 48.7257
600 54.6221
Ex : 278
200 5.34425
205 5.34291
210 5.07014
215 5.03718
220 4.87839
225 5.24716
230 5.62012
235 6.54619
240 6.96287
245 5.5986
250 8.6624
255 10.8368
260 14.5697
265 301.183
270 4796.51
275 7676.6
280 1842.46
285 241.341
290 50.8214
295 29.5061
300 29.5046
305 27.4959
310 23.6834
315 22.2257
320 23.7535
325 25.5082
330 23.3837
335 24.2076
340 22.3937
345 22.4876
350 21.1783
355 19.8658
360 20.6758
365 19.552
370 17.6789
375 17.5072
380 17.1245
385 17.1952
390 17.6624
395 18.7825
400 16.0856
405 16.9702
410 16.868
415 16.8286
420 17.3469
425 16.3545
430 16.6215
435 18.3321
440 17.8216
445 18.5805
450 17.3392
455 18.177
460 19.4312
465 20.1407
470 17.9925
475 17.995
480 19.1558
485 18.2206
490 20.0919
495 20.4869
500 20.1688
505 21.5961
510 22.3844
515 25.1472
520 30.1675
525 38.0037
530 51.147
535 96.0764
540 2184.56
545 9999.9
550 9999.9
555 9999.9
560 8550.24
565 1451.84
570 247.402
575 89.0163
580 62.7811
585 50.9823
590 45.1828
595 43.9964
600 35.4073
Ex : 283
200 4.30142
205 3.78103
210 4.35857
215 4.81744
220 4.40307
225 4.96616
230 5.45784
235 5.47475
240 5.93237
245 5.85168
250 6.77275
255 8.15932
260 9.84586
265 16.0271
270 339.066
275 5387.58
280 8253.53
285 2085.98
290 272.32
295 55.2085
300 29.1892
305 29.3392
310 27.8843
315 23.2517
320 21.431
325 21.3982
330 22.6929
335 21.837
340 21.7598
345 21.2432
350 20.5453
355 20.0538
360 18.4521
365 17.1461
370 17.5876
375 17.6905
380 16.5405
385 17.164
390 17.0398
395 16.2158
400 16.6696
405 15.8002
410 16.4768
415 15.7716
420 15.137
425 15.106
430 15.1301
435 16.3766
440 15.6633
445 16.3043
450 15.8145
455 15.9089
460 16.0706
465 18.135
470 17.3428
475 18.1732
480 15.7608
485 15.9606
490 15.0297
495 18.4846
500 16.7776
505 18.018
510 17.7219
515 18.9189
520 22.7779
525 25.5812
530 32.1597
535 36.0944
540 51.6254
545 98.1621
550 2353.07
555 9999.9
560 9999.9
565 9999.9
570 8167.96
575 1360.65
580 230.929
585 82.5386
590 56.6976
595 46.695
600 42.1668
Ex : 288
200 4.88202
205 3.67379
210 4.44253
215 4.3602
220 4.21732
225 4.61207
230 4.89554
235 5.58982
240 4.95985
245 5.26495
250 5.06787
255 6.44299
260 7.8034
265 10.3586
270 17.1255
275 349.974
280 5941.85
285 8985.62
290 2261.91
295 291.476
300 57.8687
305 28.3533
310 27.2325
315 26.3074
320 23.0367
325 21.1764
330 20.3327
335 19.3003
340 19.2194
345 19.9267
350 18.6084
355 17.7865
360 17.1069
365 17.0284
370 16.413
375 15.6092
380 15.8947
385 15.1255
390 15.1079
395 15.1409
400 14.7916
405 14.6412
410 15.4532
415 14.95
420 13.2509
425 14.1204
430 14.2423
435 14.6901
440 13.6506
445 14.0306
450 14.7685
455 14.4095
460 14.6954
465 14.4723
470 15.019
475 14.1878
480 14.0243
485 14.5342
490 14.4764
495 14.5582
500 14.685
505 14.6435
510 14.8217
515 16.1616
520 17.6174
525 18.3501
530 21.125
535 25.0377
540 29.6514
545 37.374
550 50.7841
555 93.263
560 2359.8
565 9999.9
570 9999.9
575 9999.9
580 7690.7
585 1225.02
590 205.972
595 74.313
600 54.6414
Ex : 293
200 3.24624
205 3.74521
210 3.91606
215 4.055
220 3.64013
225 3.664
230 3.98548
235 4.16122
240 5.06939
245 5.18654
250 5.29502
255 5.42697
260 6.75612
265 8.04152
270 10.3932
275 17.907
280 422.565
285 6635.21
290 9999.9
295 2435.53
300 312.706
305 60.0052
310 28.5597
315 26.8014
320 26.9208
325 22.8175
330 18.6075
335 19.3042
340 18.7218
345 17.4374
350 17.4426
355 16.4173
360 16.2617
365 15.3299
370 16.4718
375 14.7205
380 14.2377
385 15.1331
390 15.0148
395 14.1348
400 14.3485
405 14.3378
410 14.4498
415 13.6194
420 13.0169
425 13.3395
430 13.0737
435 12.825
440 12.8954
445 13.1543
450 12.9087
455 13.1347
460 13.7261
465 13.6117
470 14.2726
475 12.7001
480 13.3091
485 13.2037
490 13.4271
495 12.2011
500 12.5634
505 12.9797
510 12.1329
515 13.3756
520 14.7025
525 15.4314
530 17.8038
535 19.151
540 21.9337
545 25.5865
550 30.5079
555 37.9111
560 50.2752
565 104.467
570 2650.68
575 9999.9
580 9999.9
585 9999.9
590 6705.7
595 1025.75
600 186.951
Ex : 298
200 3.03278
205 3.8511
210 3.3575
215 3.22139
220 3.44882
225 3.44879
230 3.58149
235 4.04959
240 4.11861
245 4.10814
250 4.44925
255 5.21678
260 5.96248
265 6.75989
270 8.75937
275 11.5145
280 18.6201
285 479.58
290 7587.92
295 9999.9
300 2622.03
305 336.203
310 62.7066
315 28.2286
320 26.2036
325 26.5479
330 23.101
335 19.1091
340 17.8876
345 16.9721
350 16.5884
355 16.1811
360 14.4676
365 15.1555
370 14.3716
375 13.344
380 13.4634
385 12.9483
390 13.8103
395 13.399
400 13.4583
405 12.4009
410 12.2193
415 12.8203
420 11.9139
425 12.1401
430 11.8763
435 11.4803
440 11.7259
445 12.359
450 11.4842
455 12.3288
460 11.9651
465 12.223
470 12.6724
475 11.3572
480 11.8215
485 11.3093
490 11.3245
495 10.4815
500 10.9765
505 10.4105
510 10.9941
515 11.508
520 11.7152
525 13.6257
530 14.3535
535 15.1955
540 15.9483
545 18.4163
550 20.5801
555 23.9972
560 28.8845
565 35.4391
570 48.2837
575 113.374
580 2966.24
585 9999.9
590 9999.9
595 9999.9
600 9999.9
Ex : 303
200 2.71755
205 3.19821
210 2.99707
215 3.48079
220 3.02936
225 3.42895
230 3.35701
235 3.76677
240 3.85794
245 4.27673
250 4.58822
255 5.17832
260 5.1382
265 5.73813
270 6.92118
275 9.56463
280 11.7724
285 19.8704
290 507.684
295 8461.13
300 9999.9
305 2695.01
310 347.451
315 66.259
320 29.351
325 24.6537
330 26.0615
335 22.3902
340 17.9355
345 16.0605
350 15.4924
355 14.2537
360 14.2655
365 13.9566
370 13.7107
375 12.7597
380 12.6594
385 13.1295
390 12.7914
395 12.7703
400 13.0793
405 12.7728
410 12.0935
415 11.8936
420 11.6114
425 11.6617
430 10.9819
435 10.6805
440 11.2488
445 10.6564
450 10.8025
455 10.9552
460 11.7125
465 11.4869
470 10.9355
475 11.3282
480 10.989
485 10.4402
490 10.9855
495 10.7249
500 10.0162
505 10.1576
510 9.58956
515 9.97818
520 9.96445
525 10.9404
530 11.7567
535 12.3092
540 13.2722
545 14.2653
550 15.6608
555 17.1562
560 19.7506
565 22.5209
570 28.3519
575 35.0452
580 46.3157
585 121.62
590 3190.02
595 9999.9
600 9999.9
Ex : 308
200 2.81938
205 2.73326
210 2.83901
215 2.92493
220 3.18323
225 3.24511
230 3.60384
235 3.57598
240 3.24699
245 3.29785
250 4.1649
255 4.25437
260 4.87487
265 5.10619
270 6.10741
275 7.62259
280 9.17731
285 12.8147
290 21.1052
295 614.251
300 9278.36
305 9999.9
310 2806.25
315 361.077
320 68.9982
325 29.5798
330 24.0939
335 25.4945
340 22.5325
345 17.8186
350 14.9146
355 14.3313
360 13.5118
365 12.8525
370 12.7327
375 11.9842
380 12.0987
385 11.6916
390 12.1852
395 11.6972
400 11.5036
405 11.3684
410 10.8425
415 10.6188
420 11.2239
425 10.8484
430 10.2328
435 10.0647
440 10.001
445 10.1151
450 9.94751
455 9.98278
460 10.6642
465 10.9676
470 10.0459
475 9.66342
480 9.58534
485 10.0333
490 9.89761
495 8.81154
500 9.12928
505 8.89526
510 8.91844
515 8.53721
520 9.57233
525 9.74695
530 9.85937
535 10.4536
540 10.9668
545 11.9815
550 12.5985
555 13.9765
560 15.0266
565 15.9905
570 19.4861
575 21.2777
580 26.5589
585 32.6231
590 45.3827
595 141.547
600 551.565
Ex : 313
200 2.75399
205 2.9067
210 2.84514
215 3.01995
220 3.22818
225 2.88276
230 3.26894
235 3.1507
240 3.60547
245 3.23933
250 3.5344
255 3.93794
260 3.97757
265 4.79501
270 5.33013
275 5.89768
280 6.94427
285 8.94681
290 12.9315
295 21.7237
300 640.369
305 9999.9
310 9999.9
315 2963.4
320 380
325 71.6289
330 29.7181
335 23.7727
340 24.082
345 23.1968
350 18.9931
355 14.7926
360 13.0812
365 13.0674
370 12.621
375 12.2959
380 11.9812
385 11.6848
390 11.503
395 11.765
400 11.0895
405 10.5728
410 10.2334
415 10.38
420 9.68951
425 9.78067
430 9.5496
435 9.85219
440 9.44167
445 9.47164
450 9.27527
455 8.97985
460 9.51433
465 9.44706
470 9.48864
475 9.30138
480 8.67059
485 9.08394
490 8.54481
495 7.86511
500 8.16349
505 8.40469
510 8.5001
515 8.01571
520 8.4151
525 8.93323
530 9.1775
535 8.79787
540 9.61994
545 10.2478
550 10.1236
555 11.3497
560 11.7322
565 12.7553
570 13.7551
575 15.4605
580 17.7229
585 20.9119
590 25.7182
595 31.818
600 34.476
Ex : 318
200 2.604
205 2.63212
210 2.88238
215 2.60222
220 2.73747
225 2.92407
230 3.08212
235 3.22765
240 3.08627
245 3.44566
250 3.52746
255 3.94716
260 3.83792
265 4.1547
270 4.84769
275 5.72074
280 5.87536
285 8.11319
290 10.0979
295 13.8243
300 23.4533
305 808.633
310 9999.9
315 9999.9
320 3159
325 403.395
330 74.7806
335 30.1722
340 23.5092
345 23.5473
350 22.6951
355 18.699
360 14.9886
365 13.1333
370 12.7007
375 12.2463
380 11.707
385 11.8325
390 10.8951
395 10.8
400 10.739
405 10.8855
410 10.472
415 9.6854
420 9.40477
425 9.58835
430 9.58494
435 9.04963
440 9.39918
445 8.95764
450 8.82498
455 9.20748
460 9.17679
465 9.17768
470 8.99622
475 8.84462
480 8.48325
485 8.09998
490 8.28842
495 8.27213
500 8.26226
505 8.02652
510 7.56222
515 7.39473
520 7.61062
525 7.36986
530 7.66373
535 8.04857
540 8.15663
545 8.9583
550 9.28474
555 9.26539
560 10.1387
565 10.6314
570 11.7899
575 12.5376
580 13.3946
585 15.4111
590 16.9331
595 19.9184
600 22.9549
Ex : 323
200 2.56045
205 2.74557
210 2.8865
215 2.96921
220 2.8952
225 2.8849
230 2.93235
235 3.09977
240 3.09458
245 3.05811
250 3.38481
255 3.48096
260 3.38376
265 4.0186
270 4.48418
275 4.92613
280 5.63393
285 6.34227
290 8.00125
295 10.3259
300 15.2412
305 24.6316
310 844.742
315 9999.9
320 9999.9
325 3526.48
330 448.444
335 80.1389
340 31.1594
345 22.2178
350 22.0922
355 22.1225
360 19.806
365 15.3646
370 13.2782
375 12.5033
380 11.9968
385 11.4719
390 11.4737
395 11.0085
400 10.8713
405 10.6018
410 10.0408
415 9.80025
420 9.42171
425 9.4079
430 8.97918
435 8.35524
440 8.47323
445 9.00455
450 8.7149
455 8.57556
460 8.92255
465 8.88599
470 9.00521
475 8.04526
480 8.4719
485 8.19482
490 7.84773
495 7.19573
500 7.8087
505 7.3809
510 8.03335
515 7.66761
520 7.25554
525 7.30897
530 7.37275
535 8.15221
540 7.76748
545 8.11323
550 8.34755
555 8.33683
560 9.06077
565 9.87397
570 9.38304
575 9.98435
580 10.6411
585 11.7894
590 12.5663
595 14.4458
600 13.5258
Ex : 328
200 2.5012
205 2.85833
210 2.64489
215 2.44558
220 2.75849
225 2.68518
230 2.86588
235 3.04236
240 3.06925
245 2.88895
250 3.00805
255 3.2789
260 3.34905
265 3.67447
270 4.11159
275 4.31913
280 5.07917
285 5.46181
290 6.79852
295 8.32651
300 10.7626
305 15.4633
310 27.1455
315 885.455
320 9999.9
325 9999.9
330 3626.29
335 462.651
340 82.8843
345 31.8161
350 22.2581
355 21.384
360 20.9778
365 19.8283
370 16.318
375 13.5911
380 12.0889
385 12.2659
390 11.9203
395 11.0104
400 10.909
405 10.414
410 10.0001
415 9.83024
420 9.28278
425 9.13237
430 9.05308
435 8.73839
440 8.46879
445 8.6896
450 8.71625
455 8.24344
460 8.52084
465 8.42146
470 8.05978
475 7.94008
480 7.70975
485 7.4619
490 7.61697
495 7.10698
500 7.12357
505 7.05971
510 6.92271
515 6.86049
520 6.81961
525 7.01608
530 7.21741
535 7.3884
540 7.40092
545 7.24269
550 7.39573
555 7.6178
560 7.58309
565 8.21716
570 8.51074
575 8.79976
580 9.00191
585 9.42038
590 10.1961
595 10.9221
600 11.1367
Ex : 333
200 2.42018
205 2.52775
210 2.64044
215 2.65426
220 2.7269
225 2.78564
230 2.6387
235 2.55468
240 2.93654
245 3.1528
250 3.3938
255 3.29254
260 3.5405
265 3.53604
270 3.94706
275 4.30294
280 4.67853
285 5.14872
290 6.3581
295 7.12629
300 8.75126
305 11.4522
310 16.7012
315 28.4494
320 1065.48
325 9999.9
330 9999.9
335 3796.81
340 480.041
345 85.7944
350 31.7816
355 22.2852
360 20.0404
365 20.8795
370 20.1797
375 16.4321
380 13.6483
385 12.5873
390 12.4727
395 11.3601
400 10.9112
405 10.64
410 10.2205
415 10.0885
420 9.6024
425 9.32753
430 9.02861
435 8.56313
440 8.37151
445 8.33437
450 7.94782
455 8.30973
460 8.06282
465 8.30897
470 8.01517
475 7.49675
480 7.73851
485 7.41234
490 7.51791
495 6.92156
500 6.80572
505 6.3601
510 6.53524
515 6.664
520 6.60993
525 6.77035
530 6.93356
535 6.47078
540 6.79016
545 6.92058
550 7.02872
555 7.21083
560 7.26973
565 7.3059
570 7.62171
575 7.60858
580 7.84128
585 8.69418
590 8.72363
595 9.41893
600 7.14784
Ex : 338
200 2.46533
205 2.5011
210 2.45581
215 2.61488
220 2.66999
225 2.64841
230 2.56852
235 2.58998
240 2.83489
245 2.89337
250 3.04771
255 2.98714
260 3.35021
265 3.4663
270 3.82607
275 3.99373
280 4.32027
285 4.82352
290 5.29388
295 6.19991
300 6.89001
305 9.04677
310 11.8078
315 17.9824
320 31.3468
325 1179.22
330 9999.9
335 9999.9
340 3973.23
345 502.583
350 88.0443
355 32.8072
360 22.1182
365 19.7841
370 19.502
375 19.9044
380 17.0742
385 14.1119
390 13.1886
395 12.2872
400 11.6855
405 10.9843
410 10.3246
415 10.0081
420 9.78358
425 8.94274
430 8.83547
435 8.40126
440 8.09888
445 8.29485
450 7.76062
455 8.00934
460 8.20873
465 8.16243
470 7.98811
475 7.64386
480 7.36408
485 7.07451
490 6.65495
495 6.55449
500 6.42553
505 6.27541
510 6.16674
515 6.20512
520 5.97638
525 6.46095
530 6.15407
535 6.16024
540 6.30406
545 6.28778
550 5.97526
555 6.1899
560 6.60544
565 5.82347
570 6.60764
575 6.78758
580 6.67073
585 7.16432
590 7.65155
595 7.97654
600 6.5069
Ex : 343
200 2.29762
205 2.14816
210 2.48177
215 2.15153
220 2.35746
225 2.23426
230 2.44257
235 2.61741
240 2.63807
245 2.78164
250 2.70943
255 2.75193
260 3.11927
265 3.21236
270 3.15996
275 3.68002
280 3.60634
285 4.45472
290 4.82991
295 5.06153
300 6.01242
305 7.49972
310 9.05591
315 12.5583
320 18.1338
325 31.515
330 1174.05
335 9999.9
340 9999.9
345 4128.76
350 521.351
355 89.8539
360 32.2815
365 22.0132
370 18.5306
375 18.7707
380 19.5226
385 18.069
390 14.9515
395 12.5238
400 11.4172
405 10.6955
410 10.3746
415 9.91809
420 9.35118
425 8.83367
430 8.36459
435 8.06298
440 8.06428
445 7.99569
450 7.69408
455 7.48309
460 7.66577
465 7.96173
470 7.57745
475 7.44853
480 6.94151
485 6.67757
490 6.36399
495 6.76523
500 6.0547
505 5.87732
510 5.72867
515 5.74967
520 5.70076
525 5.80258
530 5.92342
535 5.76306
540 5.53301
545 5.82236
550 5.58502
555 5.73758
560 5.70007
565 6.11286
570 5.82549
575 6.13592
580 5.76052
585 6.35564
590 6.49633
595 6.48856
600 6.74703
Ex : 348
200 1.99361
205 2.01029
210 2.2522
215 2.09486
220 2.22104
225 2.21029
230 2.28135
235 2.35978
240 2.59925
245 2.40147
250 2.77305
255 2.64521
260 2.69408
265 3.30451
270 3.06556
275 3.23658
280 3.49988
285 3.84386
290 4.10222
295 4.83973
300 5.38308
305 5.89872
310 7.40288
315 9.69054
320 12.6278
325 18.7982
330 33.2352
335 1159.36
340 9999.9
345 9999.9
350 4846.54
355 606.37
360 100.541
365 34.1911
370 21.7834
375 18.0781
380 17.9061
385 18.4992
390 18.2417
395 15.2945
400 12.1405
405 11.3409
410 10.8428
415 10.1988
420 9.07295
425 9.14715
430 8.66812
435 8.49757
440 7.84518
445 7.59411
450 7.96597
455 7.50796
460 7.68432
465 7.61862
470 7.47943
475 7.13594
480 6.98816
485 6.7187
490 6.38577
495 6.35866
500 6.03242
505 5.8225
510 5.54508
515 5.47639
520 5.53164
525 5.3771
530 5.20767
535 5.34569
540 5.42008
545 5.60249
550 5.1231
555 5.24269
560 5.39617
565 5.39559
570 5.70754
575 5.36274
580 5.64528
585 5.62894
590 5.54133
595 5.77881
600 5.63222
Ex : 353
200 1.92546
205 1.98031
210 2.13392
215 1.91086
220 2.00918
225 2.21646
230 2.29243
235 2.34828
240 2.31474
245 2.49197
250 2.45358
255 2.57263
260 2.72601
265 2.89815
270 3.15439
275 3.32753
280 3.30746
285 3.80349
290 3.97242
295 4.64928
300 4.76957
305 5.58488
310 6.49644
315 7.99233
320 10.0786
325 13.6556
330 19.897
335 34.7041
340 1238.74
345 9999.9
350 9999.9
355 4761.06
360 596.173
365 100.302
370 34.0456
375 22.7413
380 18.1004
385 17.1314
390 18.3259
395 18.8023
400 16.4166
405 12.7182
410 11.6442
415 10.6504
420 10.3331
425 9.39676
430 8.86479
435 8.7813
440 8.35952
445 8.07056
450 7.82851
455 7.71079
460 7.96638
465 7.67645
470 7.36254
475 6.8552
480 6.51999
485 6.37135
490 6.36646
495 5.97815
500 5.8694
505 5.74343
510 5.40568
515 5.36271
520 5.16875
525 4.84999
530 4.91001
535 4.9284
540 4.76472
545 4.78482
550 5.32979
555 5.07236
560 5.10857
565 5.04276
570 5.22495
575 4.94514
580 4.9972
585 4.84256
590 4.93265
595 5.26109
600 5.86882
Ex : 358
200 1.97843
205 1.8709
210 1.93485
215 1.8832
220 1.92905
225 1.97561
230 2.13074
235 2.03097
240 2.11092
245 2.31153
250 2.2891
255 2.41636
260 2.46846
265 2.53058
270 2.76502
275 2.81349
280 2.97282
285 3.49207
290 3.34857
295 3.90586
300 4.28545
305 4.74686
310 5.246
315 6.21966
320 7.86057
325 10.1624
330 14.0174
335 19.9843
340 34.1585
345 1190.54
350 9999.9
355 9999.9
360 4919.12
365 614.494
370 102.024
375 33.977
380 22.4045
385 18.5325
390 16.4365
395 17.1443
400 17.4967
405 16.1839
410 13.1524
415 11.2618
420 10.239
425 9.36932
430 9.10338
435 8.41344
440 8.09979
445 7.78886
450 7.92473
455 7.70389
460 7.419
465 7.4398
470 6.94152
475 6.78929
480 6.50817
485 6.0933
490 6.26588
495 5.93725
500 5.44996
505 5.44613
510 5.29689
515 5.0002
520 4.83123
525 4.97756
530 4.79384
535 4.66222
540 4.6753
545 4.58367
550 4.65345
555 4.62706
560 4.71482
565 4.61864
570 4.35176
575 4.46137
580 4.57058
585 4.53335
590 4.46841
595 4.37017
600 5.64911
Ex : 363
200 1.70361
205 1.82264
210 1.89134
215 2.04238
220 1.92982
225 1.8809
230 1.93739
235 1.99868
240 1.99745
245 2.09349
250 2.2224
255 2.22105
260 2.33063
265 2.60441
270 2.59346
275 2.57689
280 2.84432
285 2.94548
290 3.08276
295 3.4006
300 3.87082
305 4.029
310 4.97135
315 5.3995
320 6.53309
325 7.80231
330 10.388
335 13.8102
340 20.6726
345 35.2671
350 1127.88
355 9999.9
360 9999.9
365 5239.92
370 653.461
375 107.13
380 35.3581
385 22.5522
390 18.3903
395 15.8277
400 16.4916
405 16.9045
410 16.3109
415 13.403
420 10.9039
425 9.67592
430 9.40604
435 8.59861
440 8.51987
445 8.1353
450 7.57691
455 7.73498
460 7.79847
465 7.48166
470 7.17317
475 6.39001
480 6.29934
485 5.81582
490 5.69508
495 5.55185
500 5.27012
505 5.35763
510 5.21593
515 4.78741
520 4.6269
525 4.59581
530 4.42718
535 4.23936
540 4.41614
545 4.44851
550 4.38217
555 4.27133
560 4.20169
565 4.43584
570 4.42711
575 4.18104
580 4.27261
585 4.09135
590 3.95237
595 3.88725
600 3.80472
Ex : 368
200 1.93325
205 1.75516
210 1.7576
215 1.68733
220 1.80105
225 1.9035
230 1.99027
235 2.00014
240 2.14059
245 2.09874
250 2.10867
255 2.13557
260 2.25921
265 2.36099
270 2.36094
275 2.48168
280 2.79435
285 2.89176
290 3.29099
295 3.38146
300 3.48871
305 3.87587
310 4.37419
315 4.86848
320 5.63848
325 6.72643
330 8.30146
335 10.274
340 14.109
345 20.939
350 34.5944
355 981.561
360 9999.9
365 9999.9
370 5811.24
375 725.281
380 115.642
385 36.747
390 23.5878
395 18.8229
400 15.2318
405 15.2775
410 16.3767
415 16.1616
420 14.2229
425 10.8343
430 9.7425
435 9.09351
440 8.53477
445 8.3628
450 7.99981
455 7.64386
460 7.32303
465 7.34805
470 6.91619
475 6.21499
480 6.02953
485 6.19106
490 5.8434
495 5.36593
500 5.0261
505 5.0241
510 4.93267
515 4.67196
520 4.61691
525 4.61026
530 4.27306
535 4.26133
540 4.08962
545 4.01294
550 4.22915
555 4.30479
560 3.9939
565 3.87173
570 3.98474
575 3.77532
580 3.90796
585 3.65765
590 3.8315
595 3.75829
600 3.05849
Ex : 373
200 1.71713
205 1.80188
210 1.84406
215 1.73006
220 1.75269
225 1.93596
230 1.8533
235 1.88656
240 1.9743
245 1.96005
250 2.08891
255 2.17764
260 2.18971
265 2.27638
270 2.38636
275 2.37311
280 2.56274
285 2.67931
290 2.72778
295 3.14706
300 3.43381
305 3.56227
310 3.98439
315 4.40382
320 5.10861
325 6.05855
330 7.17654
335 8.71416
340 11.1897
345 14.9248
350 21.9426
355 36.586
360 1231.83
365 9999.9
370 9999.9
375 5963.02
380 741.013
385 118.83
390 37.8387
395 24.0855
400 19.125
405 15.6116
410 14.8683
415 15.439
420 15.9806
425 14.2189
430 11.6184
435 9.68054
440 9.17199
445 8.56622
450 8.22683
455 8.27593
460 7.77135
465 7.47697
470 7.02676
475 6.87394
480 6.35961
485 5.87406
490 5.5598
495 5.66468
500 4.87013
505 4.74554
510 4.65236
515 4.63393
520 4.48054
525 4.21349
530 4.2471
535 4.17096
540 4.0319
545 3.9736
550 4.09711
555 3.78665
560 3.76307
565 3.65023
570 3.65902
575 3.63335
580 3.35266
585 3.56638
590 3.58645
595 3.54085
600 2.68737
Ex : 378
200 1.75356
205 1.63172
210 1.65359
215 1.74841
220 1.78235
225 1.70951
230 1.89416
235 1.77787
240 1.87173
245 1.97263
250 2.04709
255 2.00852
260 2.15264
265 2.39563
270 2.29802
275 2.39646
280 2.50604
285 2.55638
290 2.73969
295 2.93226
300 3.21305
305 3.59746
310 3.71903
315 4.03766
320 4.47268
325 5.16705
330 6.00696
335 7.173
340 8.93794
345 11.1855
350 14.834
355 21.8624
360 37.5867
365 1195.79
370 9999.9
375 9999.9
380 6161.05
385 767.055
390 123.068
395 39.1861
400 23.9484
405 18.8921
410 15.3569
415 14.364
420 15.0029
425 15.0396
430 14.1653
435 11.9571
440 9.94442
445 9.30446
450 8.42843
455 8.13469
460 7.9598
465 8.06712
470 7.3909
475 6.73057
480 6.35697
485 5.90461
490 5.59416
495 5.29487
500 5.27746
505 4.81914
510 4.58337
515 4.46117
520 4.47841
525 4.11791
530 4.14706
535 4.16415
540 3.85972
545 3.88034
550 3.72829
555 3.77142
560 3.42051
565 3.4902
570 3.61565
575 3.38823
580 3.2962
585 3.09824
590 3.10594
595 3.20784
600 3.21988
Ex : 383
200 1.66188
205 1.65211
210 1.5977
215 1.61353
220 1.54189
225 1.67778
230 1.69818
235 1.84811
240 1.84681
245 1.78612
250 1.88674
255 2.01876
260 2.15231
265 2.02918
270 2.2372
275 2.21268
280 2.4129
285 2.37872
290 2.56912
295 2.80825
300 2.97435
305 3.22533
310 3.3139
315 3.74939
320 4.30756
325 4.58133
330 5.19682
335 6.25884
340 7.44004
345 9.04802
350 11.3243
355 15.2536
360 22.5325
365 38.5622
370 1124.11
375 9999.9
380 9999.9
385 6671.84
390 829.357
395 131.259
400 40.182
405 24.4665
410 19.0124
415 15.4954
420 13.462
425 14.2272
430 14.7701
435 14.5315
440 12.214
445 10.4989
450 9.19194
455 8.52799
460 8.28023
465 7.97158
470 7.33426
475 6.69745
480 6.27087
485 6.06262
490 5.84644
495 5.55907
500 5.17745
505 5.14479
510 4.92082
515 4.45082
520 4.47106
525 4.18594
530 4.0143
535 3.95375
540 3.91853
545 3.70179
550 3.50848
555 3.43442
560 3.35676
565 3.36227
570 3.26545
575 3.21206
580 3.1962
585 3.13037
590 3.14444
595 2.97391
600 2.2451
Ex : 388
200 1.71231
205 1.72785
210 1.6335
215 1.67085
220 1.80074
225 1.8762
230 1.72259
235 1.78177
240 1.94382
245 1.84705
250 2.05021
255 2.13071
260 1.95601
265 2.17969
270 2.3004
275 2.30544
280 2.40265
285 2.37157
290 2.62535
295 2.87844
300 3.01573
305 3.14847
310 3.30792
315 3.5747
320 3.94951
325 4.34661
330 4.99995
335 5.4942
340 6.70432
345 7.797
350 9.1152
355 11.8063
360 16.0518
365 23.5478
370 40.4858
375 1269.52
380 9999.9
385 9999.9
390 6834.05
395 846.731
400 133.314
405 40.0856
410 24.7828
415 19.0066
420 14.9529
425 13.1212
430 13.6754
435 14.2749
440 14.2381
445 12.9368
450 10.4104
455 9.11041
460 8.72693
465 8.48168
470 7.7524
475 7.05792
480 6.58545
485 6.4134
490 6.04767
495 5.37981
500 5.21601
505 4.9432
510 4.87383
515 4.6365
520 4.43138
525 4.18084
530 4.0966
535 3.88581
540 3.95668
545 3.73389
550 3.5653
555 3.49064
560 3.50013
565 3.39745
570 3.15172
575 3.2779
580 3.21786
585 2.93304
590 2.83202
595 2.88963
600 1.737
Ex : 393
200 1.75403
205 1.71165
210 1.75775
215 1.67445
220 1.79118
225 1.75903
230 1.85009
235 1.98876
240 2.02608
245 1.89238
250 1.83554
255 2.01783
260 2.12184
265 2.18125
270 2.1919
275 2.34614
280 2.49926
285 2.45579
290 2.56029
295 2.72831
300 2.64952
305 2.93991
310 3.36899
315 3.48522
320 3.78079
325 4.27741
330 4.60889
335 5.24136
340 5.83334
345 6.77443
350 7.99588
355 9.63882
360 12.1965
365 16.7571
370 24.4105
375 40.4256
380 1191.25
385 9999.9
390 9999.9
395 7243.49
400 898.485
405 139.721
410 41.5788
415 24.5393
420 19.2378
425 14.9189
430 13.0318
435 13.3505
440 13.9326
445 14.0566
450 13.4972
455 11.3307
460 9.79097
465 8.7106
470 7.80972
475 7.53185
480 6.81812
485 6.32408
490 6.13049
495 5.60142
500 5.31781
505 5.2221
510 4.87848
515 4.76343
520 4.27421
525 4.15511
530 4.19586
535 4.01439
540 4.07788
545 3.91354
550 3.65076
555 3.68291
560 3.53469
565 3.27089
570 3.34813
575 2.91013
580 2.99774
585 2.98305
590 2.80844
595 2.73513
600 3.03591
Ex : 398
200 1.68115
205 1.75505
210 1.72343
215 1.7301
220 1.90439
225 1.91145
230 1.84132
235 1.88167
240 1.90192
245 2.05472
250 2.03419
255 2.07264
260 2.12599
265 2.09864
270 2.21711
275 2.34185
280 2.34292
285 2.46534
290 2.56794
295 2.72374
300 2.91482
305 2.87389
310 3.17241
315 3.13215
320 3.65568
325 3.98323
330 4.54605
335 4.64429
340 5.34511
345 6.15602
350 7.06301
355 8.00169
360 10.2044
365 12.3833
370 16.7709
375 24.055
380 40.6448
385 1255.01
390 9999.9
395 9999.9
400 7366.63
405 911.391
410 141.393
415 41.604
420 24.6623
425 18.5719
430 14.6542
435 12.4354
440 12.493
445 13.8628
450 13.807
455 13.5488
460 11.7461
465 9.84468
470 8.67725
475 7.45116
480 7.18766
485 6.5639
490 6.25926
495 5.81104
500 5.33792
505 4.95318
510 4.98295
515 4.71354
520 4.49949
525 4.19317
530 4.07729
535 3.96882
540 3.83263
545 3.78374
550 3.80142
555 3.50748
560 3.48193
565 3.19632
570 3.22159
575 3.00773
580 2.83369
585 2.82923
590 3.00641
595 2.78697
600 2.54975
Ex : 403
200 1.68482
205 1.73862
210 1.77283
215 1.76216
220 1.77114
225 1.86886
230 1.82002
235 1.78203
240 1.81969
245 1.91879
250 1.98464
255 2.17044
260 2.13364
265 2.04338
270 2.14856
275 2.15792
280 2.2375
285 2.57187
290 2.63308
295 2.52305
300 2.61647
305 2.89257
310 3.16581
315 3.27127
320 3.54552
325 3.65939
330 4.24443
335 4.49348
340 4.95345
345 5.65074
350 6.04965
355 7.28272
360 8.35225
365 10.5702
370 12.9522
375 17.0424
380 24.8765
385 44.0192
390 1387.87
395 9999.9
400 9999.9
405 7448.02
410 919.434
415 141.947
420 41.4669
425 24.3399
430 18.4307
435 14.5604
440 12.7751
445 12.2091
450 13.0003
455 13.4585
460 13.3031
465 12.2604
470 9.81283
475 8.02978
480 7.55511
485 6.74323
490 6.24946
495 5.81305
500 5.58514
505 5.237
510 4.82376
515 4.76909
520 4.42773
525 4.19455
530 4.04587
535 4.03529
540 3.95839
545 3.76843
550 3.69053
555 3.45385
560 3.50758
565 3.21601
570 3.27739
575 2.97275
580 2.80382
585 2.78701
590 2.68358
595 2.74731
600 2.39521
Ex : 408
200 1.67816
205 1.65531
210 1.67241
215 1.63217
220 1.83053
225 1.70341
230 1.69008
235 1.75228
240 1.82124
245 1.80699
250 1.9612
255 1.83755
260 1.97092
265 2.15537
270 2.18287
275 2.09701
280 2.29981
285 2.18448
290 2.37684
295 2.61503
300 2.6295
305 2.81036
310 2.88493
315 2.99126
320 3.37531
325 3.53997
330 3.93491
335 4.11588
340 4.36698
345 4.92778
350 5.36558
355 6.26872
360 7.02339
365 8.44037
370 10.3039
375 12.872
380 17.1835
385 25.7724
390 44.8101
395 1328.32
400 9999.9
405 9999.9
410 7122.2
415 882.4
420 136.578
425 39.8136
430 23.8099
435 18.1584
440 14.1938
445 12.508
450 12.1163
455 12.489
460 13.3581
465 13.073
470 11.6371
475 9.62591
480 7.72573
485 6.84803
490 6.66127
495 6.16136
500 5.80692
505 5.34418
510 4.83153
515 4.844
520 4.58325
525 4.39069
530 4.11545
535 4.01599
540 3.84766
545 3.74906
550 3.581
555 3.60222
560 3.44175
565 3.24442
570 3.07417
575 3.09571
580 2.95511
585 2.71066
590 2.77777
595 2.81353
600 2.98393
Ex : 413
200 1.62489
205 1.57065
210 1.52944
215 1.58129
220 1.70203
225 1.61574
230 1.65008
235 1.8144
240 1.87856
245 1.86128
250 1.76824
255 1.83748
260 1.95747
265 2.06311
270 2.08128
275 2.07431
280 2.18735
285 2.3212
290 2.29454
295 2.39707
300 2.61404
305 2.67811
310 2.93397
315 3.06107
320 3.23386
325 3.39403
330 3.64596
335 3.6785
340 4.30325
345 4.5785
350 5.31762
355 5.49336
360 6.28367
365 7.27551
370 8.76004
375 10.3716
380 13.0901
385 18.2549
390 27.7192
395 48.2977
400 1537.11
405 9999.9
410 9999.9
415 7049.8
420 870.579
425 135.589
430 39.8611
435 24.2169
440 18.4012
445 14.8836
450 12.9131
455 11.9213
460 12.5493
465 13.6178
470 12.2792
475 11.3928
480 9.89512
485 8.04301
490 7.01796
495 6.3083
500 5.94875
505 5.24151
510 5.11065
515 4.90501
520 4.78753
525 4.55827
530 4.2951
535 3.87881
540 3.78644
545 3.82336
550 3.7445
555 3.46253
560 3.3694
565 3.2531
570 3.23008
575 3.07833
580 3.00398
585 2.71584
590 2.7588
595 2.55567
600 2.34416
Ex : 418
200 1.64197
205 1.57503
210 1.55985
215 1.60102
220 1.63664
225 1.73114
230 1.86416
235 1.71947
240 1.62093
245 1.76981
250 1.79559
255 2.0077
260 1.95811
265 1.96447
270 2.04026
275 2.02702
280 2.09895
285 2.28967
290 2.35119
295 2.36682
300 2.43175
305 2.63211
310 2.70958
315 2.86886
320 3.10056
325 3.22705
330 3.60397
335 3.95608
340 3.99963
345 4.41825
350 4.96923
355 5.40971
360 5.93614
365 6.6898
370 7.84209
375 9.48484
380 11.2495
385 14.6783
390 20.1269
395 29.5448
400 49.3299
405 1522.21
410 9999.9
415 9999.9
420 7588.01
425 936.041
430 145.039
435 42.3847
440 25.4694
445 20.0885
450 15.2425
455 13.1958
460 12.6489
465 12.4399
470 12.852
475 12.2768
480 11.4387
485 9.97834
490 7.98522
495 6.68301
500 6.13604
505 5.6716
510 5.3667
515 5.18967
520 4.79351
525 4.61319
530 4.46909
535 4.22818
540 4.16705
545 3.88643
550 3.74108
555 3.48714
560 3.49926
565 3.28793
570 3.19146
575 3.0837
580 3.04483
585 2.90082
590 2.66039
595 2.61031
600 2.40895
Ex : 423
200 1.69724
205 1.56072
210 1.59289
215 1.65032
220 1.61353
225 1.69313
230 1.68255
235 1.68542
240 1.84569
245 1.67322
250 1.89727
255 1.7611
260 1.88737
265 1.95595
270 2.01626
275 2.22807
280 2.15896
285 2.20941
290 2.28391
295 2.35523
300 2.39886
305 2.43897
310 2.6744
315 2.93441
320 2.98841
325 3.11759
330 3.45381
335 3.65507
340 3.95806
345 4.34431
350 4.42196
355 4.85794
360 5.29157
365 6.05873
370 6.5643
375 8.06122
380 9.43795
385 11.5088
390 15.0968
395 19.9637
400 29.5518
405 50.08
410 1584.97
415 9999.9
420 9999.9
425 7259.52
430 898.027
435 140.887
440 41.5637
445 25.5858
450 19.7533
455 15.0071
460 13.5365
465 12.6047
470 11.6933
475 11.9235
480 11.6533
485 10.9371
490 9.85614
495 8.33061
500 6.70484
505 5.80474
510 5.40265
515 5.2693
520 4.94706
525 4.4339
530 4.29216
535 4.12528
540 3.90891
545 3.93341
550 3.79476
555 3.67867
560 3.45572
565 3.31456
570 3.22836
575 2.92875
580 2.93451
585 2.75018
590 2.68066
595 2.53724
600 2.2505
Ex : 428
200 1.6948
205 1.55758
210 1.76101
215 1.74954
220 1.75518
225 1.65682
230 1.61843
235 1.63737
240 1.63407
245 1.75813
250 1.76801
255 1.81004
260 1.9038
265 2.02811
270 2.00314
275 2.04532
280 2.21265
285 2.15729
290 2.24893
295 2.35397
300 2.56927
305 2.45503
310 2.80302
315 2.67413
320 2.99085
325 3.06352
330 3.36474
335 3.58507
340 3.85302
345 4.09603
350 4.30532
355 4.45602
360 5.1957
365 5.5519
370 6.16703
375 7.30093
380 8.01424
385 9.75966
390 12.4391
395 15.7629
400 21.0537
405 30.7122
410 53.3603
415 1772.38
420 9999.9
425 9999.9
430 7566.92
435 934.836
440 145.649
445 44.5983
450 26.8163
455 20.2536
460 15.8266
465 14.4805
470 12.3262
475 10.9344
480 11.1936
485 11.5252
490 10.8132
495 9.81345
500 8.47679
505 6.7086
510 6.211
515 5.47853
520 5.17162
525 4.89046
530 4.55039
535 4.36679
540 4.01992
545 4.02513
550 3.67231
555 3.67285
560 3.45695
565 3.49292
570 3.24671
575 2.99477
580 2.85089
585 2.84546
590 2.81307
595 2.6184
600 1.8834
Ex : 433
200 1.60517
205 1.49301
210 1.57295
215 1.60031
220 1.63263
225 1.6941
230 1.76014
235 1.67583
240 1.71002
245 1.73929
250 1.89316
255 1.83698
260 1.91619
265 1.9894
270 2.09062
275 2.22553
280 2.1497
285 2.27315
290 2.45882
295 2.32818
300 2.41173
305 2.50441
310 2.51814
315 2.70853
320 2.9046
325 2.92299
330 3.25233
335 3.44392
340 3.53992
345 4.05976
350 4.20715
355 4.44799
360 4.76885
365 5.34605
370 5.99253
375 6.37829
380 7.36856
385 9.03473
390 10.8344
395 12.7294
400 16.5441
405 21.7277
410 31.6416
415 55.6287
420 1952.4
425 9999.9
430 9999.9
435 7366.73
440 911.919
445 144.77
450 44.3276
455 27.2803
460 21.2544
465 17.0212
470 13.6968
475 11.914
480 11.3595
485 11.2017
490 11.3748
495 10.5834
500 9.51259
505 8.86921
510 6.98859
515 5.92837
520 5.35131
525 5.14373
530 4.8087
535 4.32185
540 4.25105
545 4.05501
550 3.94174
555 3.76083
560 3.62506
565 3.44284
570 3.35859
575 3.102
580 2.97516
585 2.83472
590 2.71116
595 2.71567
600 3.79425
Ex : 438
200 1.58081
205 1.50253
210 1.61628
215 1.65055
220 1.70731
225 1.7098
230 1.76453
235 1.82358
240 1.76778
245 1.86776
250 1.70818
255 1.8923
260 1.8315
265 2.05478
270 2.05263
275 2.04662
280 2.14058
285 2.26122
290 2.53701
295 2.2828
300 2.37307
305 2.51363
310 2.66627
315 2.70596
320 2.81999
325 3.22177
330 3.16844
335 3.388
340 3.60817
345 3.65913
350 4.05245
355 4.59304
360 4.81893
365 5.1676
370 5.53635
375 6.0791
380 6.92505
385 7.66521
390 9.00195
395 10.9498
400 13.3648
405 16.2423
410 22.6566
415 33.1296
420 55.8429
425 1860.15
430 9999.9
435 9999.9
440 7436.77
445 922.036
450 147.772
455 45.213
460 28.5864
465 22.0526
470 16.6646
475 13.4042
480 12.2218
485 11.0398
490 10.7402
495 11.0241
500 10.6223
505 9.41427
510 8.86682
515 7.54139
520 6.24876
525 5.30463
530 5.0654
535 4.8722
540 4.61535
545 4.28964
550 4.10753
555 3.88122
560 3.59883
565 3.54597
570 3.27966
575 3.10245
580 3.17556
585 2.92305
590 2.79548
595 2.80205
600 3.14331
Ex : 443
200 1.50978
205 1.74681
210 1.60376
215 1.71965
220 1.76948
225 1.8449
230 1.80987
235 1.81756
240 1.74731
245 1.82653
250 1.81362
255 1.90385
260 1.84749
265 1.86161
270 1.9677
275 2.013
280 2.13537
285 2.28022
290 2.40613
295 2.46405
300 2.45919
305 2.51604
310 2.53927
315 2.67272
320 3.01953
325 2.962
330 3.23878
335 3.19502
340 3.34112
345 3.66234
350 4.03129
355 4.31528
360 4.49898
365 5.00897
370 5.39751
375 5.51989
380 6.46738
385 7.01186
390 8.12735
395 9.38519
400 11.1266
405 13.6185
410 17.4444
415 23.6545
420 33.968
425 56.9212
430 2078.75
435 9999.9
440 9999.9
445 7607.27
450 941.677
455 151.424
460 47.1589
465 30.1714
470 21.9137
475 15.5283
480 12.9129
485 11.8216
490 11.0034
495 10.3175
500 10.3724
505 10.4231
510 9.20575
515 8.56835
520 7.52783
525 6.11247
530 5.41504
535 4.99239
540 4.72428
545 4.36272
550 4.2473
555 4.02266
560 3.91961
565 3.62744
570 3.39728
575 3.26714
580 3.07045
585 3.0156
590 2.98141
595 2.71722
600 4.2187
Ex : 448
200 1.63311
205 1.67239
210 1.65087
215 1.72858
220 1.75652
225 1.74784
230 1.76297
235 1.84652
240 1.84396
245 1.90122
250 1.83782
255 1.97243
260 1.85027
265 2.07002
270 2.01884
275 1.96883
280 2.08789
285 2.15328
290 2.32573
295 2.3866
300 2.51877
305 2.45114
310 2.33912
315 2.6389
320 2.89555
325 2.86378
330 2.95155
335 3.15388
340 3.39686
345 3.53937
350 3.83224
355 3.99616
360 4.44773
365 4.51474
370 4.97301
375 5.50294
380 6.02928
385 6.7846
390 7.32631
395 8.44578
400 9.79353
405 11.5103
410 14.0136
415 17.6861
420 23.7192
425 34.3471
430 58.2522
435 2125.31
440 9999.9
445 9999.9
450 7638.23
455 945.997
460 153.13
465 48.4218
470 29.2262
475 20.5845
480 15.6337
485 12.5939
490 11.6532
495 10.7653
500 10.0652
505 9.79289
510 10.1502
515 9.26496
520 8.39414
525 7.59622
530 6.4414
535 5.60336
540 4.92232
545 4.65247
550 4.44911
555 4.22698
560 4.03571
565 3.69996
570 3.50744
575 3.30625
580 3.11583
585 3.26131
590 2.92448
595 2.72615
600 2.49672
Ex : 453
200 1.7313
205 1.79446
210 1.76402
215 1.72603
220 1.85694
225 1.79976
230 1.74258
235 1.72179
240 1.87121
245 1.788
250 1.76743
255 1.88287
260 1.96521
265 2.00211
270 2.0289
275 2.07574
280 1.97665
285 2.09903
290 2.28715
295 2.50342
300 2.38263
305 2.5495
310 2.62552
315 2.5447
320 2.85801
325 2.84075
330 2.95617
335 3.12829
340 3.4726
345 3.56581
350 3.65607
355 3.80246
360 4.12743
365 4.40561
370 5.01246
375 5.24966
380 5.67358
385 6.03642
390 6.8986
395 7.5518
400 8.79683
405 9.87816
410 11.8337
415 14.1728
420 17.5465
425 23.3521
430 33.4449
435 57.2953
440 2246.4
445 9999.9
450 9999.9
455 7301.63
460 910.543
465 150.62
470 47.076
475 27.7068
480 20.7113
485 14.9996
490 12.7707
495 11.3063
500 10.5286
505 9.8559
510 9.20151
515 9.45917
520 8.63558
525 8.09444
530 7.38241
535 6.63394
540 5.57365
545 4.98053
550 4.61842
555 4.19329
560 4.15768
565 3.75917
570 3.82542
575 3.5009
580 3.27724
585 3.04237
590 2.9281
595 2.84782
600 2.51824
Ex : 458
200 1.81885
205 1.68434
210 1.88649
215 1.75995
220 1.69479
225 1.74683
230 1.76737
235 1.86009
240 1.92868
245 1.93474
250 1.90199
255 1.95737
260 1.93719
265 2.01091
270 1.96888
275 2.05319
280 2.14179
285 2.2074
290 2.30642
295 2.47964
300 2.47544
305 2.68057
310 2.57339
315 2.85316
320 2.80346
325 2.78645
330 3.10008
335 3.15244
340 3.08523
345 3.45113
350 3.61995
355 3.92396
360 4.09327
365 4.47266
370 4.62537
375 4.8918
380 5.39327
385 5.70649
390 6.22517
395 7.16007
400 7.88008
405 9.06967
410 10.1961
415 11.908
420 14.3285
425 17.7942
430 23.4673
435 34.399
440 59.8356
445 2434.92
450 9999.9
455 9999.9
460 7746.21
465 965.837
470 156.483
475 46.3846
480 27.5852
485 19.654
490 14.7167
495 12.5952
500 11.1062
505 10.6484
510 9.79625
515 9.17168
520 9.16672
525 8.84538
530 8.15122
535 7.53472
540 6.67868
545 5.70741
550 4.90273
555 4.64393
560 4.2118
565 4.20525
570 3.78783
575 3.62877
580 3.34076
585 3.13371
590 3.17752
595 3.03909
600 2.22129
Ex : 463
200 1.75073
205 1.79413
210 1.8964
215 1.79214
220 1.67526
225 1.85096
230 1.8293
235 1.90176
240 1.79027
245 1.81326
250 1.89944
255 1.82568
260 1.81915
265 1.94357
270 2.03082
275 1.96173
280 2.05082
285 2.16345
290 2.238
295 2.3907
300 2.4179
305 2.58392
310 2.60847
315 2.68472
320 2.86673
325 2.74443
330 3.02548
335 3.07556
340 3.26557
345 3.23752
350 3.51025
355 3.75101
360 3.96623
365 4.13747
370 4.47189
375 4.68701
380 5.08885
385 5.68184
390 6.03041
395 6.61493
400 7.04192
405 7.84627
410 8.5528
415 9.80527
420 11.4753
425 13.2752
430 17.0317
435 22.8588
440 32.7683
445 59.0916
450 2271.05
455 9999.9
460 9999.9
465 7608.73
470 945.044
475 148.372
480 43.9616
485 25.8395
490 19.1328
495 13.7335
500 11.4967
505 10.3677
510 9.75452
515 9.32948
520 8.75107
525 8.61105
530 8.51977
535 7.85408
540 6.82891
545 6.64751
550 5.90373
555 4.82281
560 4.59519
565 4.20217
570 3.90508
575 3.5374
580 3.27927
585 3.21093
590 3.07065
595 2.89452
600 3.09168
Ex : 468
200 1.67541
205 1.72381
210 1.83289
215 1.78021
220 1.81443
225 1.8151
230 1.9345
235 1.86971
240 1.81631
245 1.8951
250 1.84826
255 1.77635
260 1.88421
265 1.91747
270 2.06555
275 2.00069
280 2.13564
285 2.17071
290 2.18606
295 2.22469
300 2.37274
305 2.47946
310 2.47611
315 2.62851
320 2.7116
325 2.8195
330 2.78943
335 3.08889
340 3.15765
345 3.23596
350 3.36822
355 3.37186
360 3.66092
365 3.89382
370 4.21497
375 4.54001
380 4.76042
385 5.11652
390 5.51089
395 5.78402
400 6.38135
405 6.92092
410 7.47437
415 8.57295
420 9.60628
425 10.8894
430 13.3567
435 17.2782
440 22.8787
445 34.1512
450 58.6483
455 2485.08
460 9999.9
465 9999.9
470 7456.14
475 918.114
480 144.087
485 41.7898
490 25.3469
495 18.088
500 13.537
505 11.0735
510 10.1042
515 9.66961
520 9.23026
525 8.4214
530 7.95705
535 8.33696
540 7.74158
545 6.84911
550 6.21425
555 5.56669
560 4.92428
565 4.27427
570 3.90852
575 3.78499
580 3.43723
585 3.54321
590 3.21735
595 2.9737
600 3.18788
Ex : 473
200 1.67776
205 1.76804
210 1.80171
215 1.75883
220 1.76698
225 1.98709
230 2.2218
235 2.05031
240 1.97566
245 1.86712
250 1.79702
255 1.89008
260 1.98558
265 2.02734
270 1.99019
275 2.10609
280 2.0088
285 1.99032
290 1.99427
295 2.16984
300 2.26101
305 2.37243
310 2.55457
315 2.59218
320 2.71168
325 2.68351
330 2.71135
335 2.8965
340 3.24059
345 3.12242
350 3.24952
355 3.48558
360 3.57104
365 3.88988
370 4.13956
375 4.44344
380 4.66528
385 5.14323
390 5.3716
395 5.75681
400 6.09547
405 6.78272
410 7.04491
415 7.56702
420 8.73674
425 10.0256
430 11.1715
435 13.3695
440 17.5001
445 23.7877
450 35.7731
455 60.583
460 2725.93
465 9999.9
470 9999.9
475 7340.47
480 905.244
485 140.946
490 41.8641
495 24.7203
500 17.9449
505 12.9693
510 11.1573
515 10.094
520 9.83078
525 9.31427
530 8.69128
535 7.80405
540 7.70626
545 7.48668
550 6.57648
555 6.4285
560 5.97894
565 4.93042
570 4.43774
575 3.86182
580 3.59853
585 3.28897
590 3.29466
595 3.16422
600 2.57677
Ex : 478
200 1.96277
205 1.90759
210 1.84949
215 1.8764
220 1.85059
225 1.85841
230 2.19453
235 2.62687
240 2.01907
245 1.86963
250 1.9779
255 1.94436
260 1.9514
265 2.11328
270 2.0572
275 2.08647
280 2.14666
285 2.13955
290 2.15411
295 2.25668
300 2.37555
305 2.33262
310 2.37629
315 2.80821
320 2.85791
325 2.96673
330 2.89626
335 3.1612
340 3.22358
345 3.40261
350 3.36487
355 3.56145
360 3.85283
365 3.89633
370 4.09961
375 4.43577
380 4.5676
385 4.88316
390 5.6846
395 6.00025
400 6.36069
405 6.70225
410 7.39987
415 8.22933
420 8.55954
425 9.52458
430 11.0813
435 12.4024
440 15.3485
445 20.8522
450 27.92
455 41.2541
460 74.6849
465 3175.53
470 9999.9
475 9999.9
480 8126.13
485 1001.34
490 157.726
495 45.9389
500 26.8304
505 19.5639
510 14.2329
515 11.9522
520 10.4844
525 10.2286
530 9.43515
535 8.83021
540 8.06277
545 7.77124
550 7.63781
555 6.8517
560 6.43021
565 5.96162
570 5.11413
575 4.43649
580 4.09169
585 3.95611
590 3.37305
595 3.38023
600 3.6967
Ex : 483
200 1.8265
205 1.81628
210 2.10309
215 1.89564
220 1.87333
225 1.86687
230 1.89778
235 2.82214
240 2.42374
245 2.00634
250 1.99977
255 1.9138
260 1.98016
265 1.98926
270 2.02214
275 2.09674
280 2.16367
285 2.18413
290 2.2622
295 2.2628
300 2.25871
305 2.33753
310 2.55408
315 2.79553
320 2.81727
325 2.80595
330 2.89643
335 3.27365
340 3.18101
345 3.18703
350 3.3827
355 3.51508
360 3.70506
365 3.86325
370 3.98921
375 4.11442
380 4.72487
385 4.83543
390 5.42584
395 5.73523
400 6.03254
405 6.46076
410 6.77538
415 7.42781
420 8.19998
425 8.75698
430 9.44203
435 10.8449
440 12.4299
445 16.0304
450 20.3782
455 28.2894
460 43.2974
465 75.7513
470 2412.89
475 9999.9
480 9999.9
485 8449.52
490 1038.08
495 160.637
500 46.1404
505 26.383
510 19.3354
515 14.2496
520 11.7998
525 11.0571
530 10.0516
535 9.67575
540 8.79903
545 7.86079
550 7.33988
555 7.44734
560 6.99231
565 6.03721
570 5.79977
575 5.18993
580 4.44177
585 4.159
590 3.68962
595 3.37553
600 4.21773
Ex : 488
200 1.87347
205 1.69839
210 1.95038
215 1.94029
220 2.02255
225 1.76076
230 1.93834
235 2.45192
240 2.95714
245 2.12722
250 2.09518
255 1.96851
260 1.9632
265 2.2466
270 2.11655
275 2.10333
280 2.10944
285 2.31263
290 2.20792
295 2.29186
300 2.45386
305 2.18988
310 2.43865
315 2.61851
320 2.59048
325 2.93068
330 2.82264
335 3.08622
340 3.34571
345 3.36778
350 3.27943
355 3.4962
360 3.67536
365 3.77786
370 3.83396
375 4.42696
380 4.55113
385 4.86613
390 4.98409
395 5.40918
400 5.7552
405 6.38446
410 6.56391
415 7.20801
420 7.43501
425 7.79745
430 9.10547
435 10.1052
440 11.3458
445 13.2837
450 16.8637
455 22.4338
460 30.8609
465 47.2944
470 76.7257
475 2905.26
480 9999.9
485 9999.9
490 8263.62
495 1015.88
500 156.119
505 45.0454
510 26.5304
515 19.1832
520 14.0864
525 11.9642
530 10.8581
535 10.3016
540 9.3764
545 8.52785
550 7.98776
555 7.30511
560 7.0039
565 6.56483
570 5.76566
575 5.26614
580 4.8239
585 4.43269
590 4.02618
595 3.69304
600 3.4445
Ex : 493
200 1.86298
205 1.82109
210 1.92452
215 1.68897
220 1.84952
225 1.93127
230 1.92206
235 2.07925
240 3.08031
245 2.56909
250 2.06603
255 1.88892
260 2.11104
265 2.04261
270 2.08692
275 2.05814
280 2.20498
285 2.09866
290 2.14927
295 2.20976
300 2.25736
305 2.29332
310 2.24822
315 2.45054
320 2.62142
325 2.72271
330 2.70067
335 2.95994
340 3.22679
345 3.46338
350 3.4555
355 3.33531
360 3.60406
365 3.76367
370 3.99005
375 4.07051
380 4.24415
385 4.62183
390 4.93441
395 5.33259
400 5.66919
405 6.10733
410 6.42285
415 6.85695
420 7.16907
425 7.36386
430 7.98773
435 9.35019
440 10.3671
445 11.9742
450 14.3557
455 17.496
460 22.831
465 32.3492
470 44.9491
475 71.0888
480 2781.14
485 9999.9
490 9999.9
495 8247.59
500 1010.81
505 155.339
510 45.0604
515 26.2864
520 19.0845
525 13.8286
530 11.5483
535 10.8334
540 10.2723
545 9.50904
550 8.4012
555 7.64292
560 7.13719
565 6.73975
570 6.33062
575 5.57911
580 4.97396
585 4.69436
590 4.21853
595 4.02903
600 2.87198
Ex : 498
200 1.80075
205 1.9008
210 1.86789
215 1.76827
220 1.8013
225 1.75278
230 1.96913
235 1.97579
240 2.57243
245 3.5141
250 2.28592
255 2.14242
260 2.10935
265 2.24313
270 2.14437
275 2.13581
280 2.09177
285 2.07733
290 2.06592
295 2.18486
300 2.29784
305 2.40302
310 2.39644
315 2.35637
320 2.61597
325 2.65425
330 2.64019
335 2.94938
340 3.02538
345 3.30699
350 3.40913
355 3.39545
360 3.60129
365 3.54006
370 3.69965
375 3.98768
380 4.16729
385 4.41531
390 4.59908
395 5.16296
400 5.61341
405 6.15051
410 6.19186
415 6.54501
420 6.92447
425 7.4617
430 8.03632
435 8.64914
440 9.54502
445 10.7024
450 12.5575
455 15.2137
460 18.9177
465 25.5814
470 32.8284
475 45.0612
480 74.5727
485 3291.93
490 9999.9
495 9999.9
500 8465.33
505 1036.94
510 159.27
515 45.7569
520 27.0818
525 19.2754
530 14.201
535 11.8684
540 10.6273
545 10.3929
550 9.69707
555 8.60573
560 7.75199
565 7.22588
570 6.59382
575 6.13034
580 5.45814
585 4.88433
590 4.54472
595 4.3282
600 3.81072
Ex : 503
200 1.79988
205 1.75769
210 2.03073
215 1.86095
220 1.87931
225 2.0291
230 1.94042
235 2.0147
240 2.19464
245 3.61489
250 3.05412
255 2.1013
260 2.10536
265 2.12117
270 2.01981
275 1.97866
280 2.2052
285 2.11012
290 2.54319
295 2.39012
300 2.55719
305 2.31369
310 2.4592
315 2.17959
320 2.56316
325 2.55698
330 2.73051
335 2.74518
340 3.05332
345 3.2366
350 3.38118
355 3.58304
360 3.64206
365 3.64036
370 3.83354
375 4.11139
380 4.12493
385 4.30292
390 4.80433
395 5.03203
400 5.20683
405 5.80621
410 5.9776
415 6.46125
420 6.87446
425 7.10414
430 7.83873
435 8.32906
440 8.95084
445 9.65427
450 11.4572
455 13.119
460 16.0004
465 20.9442
470 26.069
475 32.5466
480 46.7054
485 76.118
490 3105.33
495 9999.9
500 9999.9
505 8557.73
510 1050.06
515 161.013
520 45.9931
525 26.4918
530 19.4139
535 14.3798
540 11.7777
545 11.0461
550 10.3579
555 9.47864
560 8.71936
565 7.62548
570 6.93949
575 6.06595
580 5.82188
585 5.49734
590 4.60564
595 4.43972
600 3.86195
Ex : 508
200 1.73079
205 1.87074
210 1.73759
215 1.80376
220 1.93712
225 1.97266
230 1.95038
235 2.01604
240 1.92072
245 2.78276
250 4.86446
255 2.47518
260 2.03294
265 2.02501
270 2.09703
275 2.26402
280 2.35035
285 2.15629
290 2.15927
295 2.22003
300 2.38414
305 2.37386
310 2.38662
315 2.3959
320 2.57899
325 2.52558
330 2.72001
335 2.58364
340 3.04929
345 3.21131
350 3.38058
355 3.46233
360 3.43248
365 3.45366
370 3.47354
375 3.90983
380 4.0381
385 4.37398
390 4.70006
395 4.80898
400 5.47045
405 5.56146
410 5.86536
415 6.08753
420 6.39681
425 6.95957
430 7.27894
435 7.76595
440 8.63586
445 9.57543
450 10.6244
455 11.9614
460 14.332
465 16.978
470 20.0854
475 25.0905
480 32.9458
485 45.5412
490 75.6024
495 3216.98
500 9999.9
505 9999.9
510 9277.27
515 1133.17
520 169.838
525 46.9617
530 26.89
535 18.974
540 14.1373
545 11.7214
550 10.3865
555 10.086
560 9.61272
565 8.4214
570 7.82819
575 7.0826
580 6.28438
585 5.45216
590 5.16587
595 4.63414
600 4.60465
Ex : 513
200 1.90714
205 1.98176
210 1.92577
215 1.8678
220 1.8742
225 1.82997
230 1.78947
235 1.88589
240 1.93813
245 2.15251
250 8.92946
255 7.55902
260 2.66109
265 2.0846
270 2.20106
275 2.30005
280 2.26057
285 2.34311
290 2.25485
295 2.43443
300 2.28733
305 2.2191
310 2.41174
315 2.39092
320 2.67609
325 2.67508
330 2.85462
335 2.74046
340 2.86115
345 2.90218
350 3.08859
355 3.33954
360 3.39754
365 3.6272
370 3.98291
375 3.78888
380 4.09376
385 4.25854
390 4.52632
395 4.58944
400 4.71732
405 4.76991
410 5.45597
415 5.97213
420 6.09365
425 6.65286
430 6.86064
435 7.11414
440 7.59212
445 8.94233
450 9.48683
455 10.8507
460 12.2883
465 15.0078
470 16.6665
475 19.5632
480 25.1625
485 32.497
490 45.0466
495 72.9995
500 2867.05
505 9999.9
510 9999.9
515 9764.26
520 1190.71
525 176.054
530 47.226
535 26.7757
540 19.5798
545 13.99
550 11.8126
555 10.7968
560 10.034
565 9.45076
570 8.58704
575 7.55556
580 6.45491
585 5.91115
590 5.35005
595 5.03556
600 5.33242
Ex : 518
200 2.00011
205 1.74044
210 1.82224
215 1.80173
220 1.61635
225 1.73152
230 1.94511
235 1.9527
240 1.88512
245 1.98067
250 8.90762
255 25.1547
260 7.41683
265 2.7451
270 2.0843
275 1.97742
280 2.0107
285 2.2224
290 2.24214
295 2.0841
300 2.36034
305 2.38432
310 2.34967
315 2.29774
320 2.38868
325 2.65267
330 2.6269
335 2.60733
340 2.68191
345 2.60513
350 2.93993
355 3.46638
360 3.33402
365 3.43216
370 3.60408
375 3.71375
380 3.72763
385 4.041
390 4.26744
395 4.59865
400 4.648
405 5.06184
410 5.09348
415 5.53589
420 5.81073
425 6.46604
430 6.55002
435 6.97557
440 7.71111
445 7.70305
450 8.80529
455 9.93625
460 11.3601
465 13.0645
470 14.5626
475 16.2346
480 18.9632
485 24.1046
490 32.3878
495 44.388
500 70.9041
505 2818.8
510 9999.9
515 9999.9
520 9805.45
525 1193.73
530 175.649
535 47.4026
540 26.3987
545 18.8022
550 14.316
555 11.4791
560 10.1749
565 9.60137
570 9.11253
575 8.12699
580 7.26346
585 6.42959
590 5.88425
595 5.22741
600 4.61717
Ex : 523
200 1.86715
205 1.97779
210 1.8792
215 1.80643
220 1.81596
225 1.8428
230 1.80892
235 1.79294
240 1.76318
245 1.82401
250 3.14438
255 39.5911
260 30.1101
265 5.68632
270 2.44626
275 2.12681
280 2.35182
285 2.27424
290 2.36874
295 2.25056
300 2.26054
305 2.33476
310 2.33211
315 2.44589
320 2.45506
325 2.48012
330 2.55601
335 2.7666
340 2.91279
345 2.86358
350 3.23736
355 3.15332
360 2.9575
365 3.11438
370 3.56686
375 3.92039
380 3.77083
385 3.7228
390 3.90128
395 4.21362
400 4.41987
405 4.91372
410 4.83065
415 5.30757
420 5.4891
425 5.91373
430 6.11951
435 6.87475
440 7.27083
445 7.72499
450 8.04188
455 8.93444
460 10.298
465 11.9634
470 13.0185
475 13.9802
480 15.8613
485 19.0263
490 24.6618
495 30.647
500 42.5131
505 70.6396
510 2581.83
515 9999.9
520 9999.9
525 9999.9
530 1216.1
535 177.559
540 47.2235
545 25.9163
550 17.7791
555 12.8923
560 10.8289
565 10.1335
570 9.39229
575 8.48108
580 8.04718
585 6.66152
590 5.86738
595 5.36849
600 5.74962
Ex : 528
200 1.97129
205 1.81366
210 1.82989
215 1.83296
220 1.79805
225 1.84366
230 1.86248
235 1.8946
240 1.82345
245 1.92897
250 1.94977
255 23.4139
260 74.2818
265 17.4003
270 4.0594
275 2.52434
280 2.3406
285 2.10651
290 2.11435
295 2.22971
300 2.34239
305 2.31617
310 2.34539
315 2.45205
320 2.73048
325 2.49292
330 2.59803
335 2.92105
340 2.77726
345 2.92484
350 2.93738
355 3.10009
360 3.12684
365 3.16403
370 3.38508
375 3.53578
380 3.75027
385 3.75852
390 3.86265
395 3.8623
400 4.4394
405 4.60327
410 5.03294
415 5.08116
420 5.51076
425 5.64138
430 5.9688
435 6.41328
440 6.95393
445 7.28626
450 7.70998
455 8.2955
460 9.39383
465 10.6274
470 11.3834
475 12.3275
480 13.5206
485 15.4768
490 19.1163
495 24.0877
500 30.8875
505 42.5763
510 69.7937
515 2462.54
520 9999.9
525 9999.9
530 9801.54
535 1193.86
540 174.601
545 45.9262
550 25.4532
555 18.1043
560 13.1773
565 10.5464
570 9.57201
575 8.82151
580 8.36798
585 7.61947
590 6.8192
595 5.92482
600 5.28335
Ex : 533
200 1.60452
205 1.71308
210 1.91795
215 1.83766
220 1.75448
225 1.6374
230 1.86753
235 1.84794
240 1.94858
245 1.89446
250 1.94903
255 5.53825
260 84.3261
265 62.377
270 9.80574
275 3.20352
280 2.47912
285 2.22557
290 2.32313
295 2.50066
300 2.59536
305 2.42142
310 2.37867
315 2.50039
320 2.42468
325 2.52406
330 2.5669
335 2.66991
340 2.65718
345 2.7988
350 2.9274
355 2.96547
360 3.03747
365 3.2241
370 3.25388
375 3.26289
380 3.44482
385 3.79256
390 3.92829
395 3.93278
400 3.99376
405 4.39797
410 4.84581
415 4.9481
420 5.24353
425 5.53576
430 5.61405
435 5.80699
440 6.05998
445 6.91189
450 7.65881
455 7.82253
460 8.62418
465 9.78835
470 10.5306
475 10.6669
480 12.1694
485 13.1308
490 14.7441
495 18.1069
500 22.7933
505 29.767
510 41.3908
515 64.8299
520 2357.72
525 9999.9
530 9999.9
535 9919.1
540 1202.69
545 174.795
550 44.3023
555 23.9491
560 16.9557
565 12.4816
570 10.2929
575 8.71613
580 8.47369
585 7.50057
590 6.92152
595 6.61433
600 6.24624
Ex : 538
200 1.80812
205 1.97715
210 1.76945
215 1.86724
220 1.81831
225 1.6462
230 1.78172
235 1.74806
240 1.92332
245 1.80213
250 1.89773
255 2.21025
260 37.5454
265 129.48
270 31.6057
275 5.83928
280 2.79447
285 2.27027
290 2.35742
295 2.30625
300 2.33495
305 2.46992
310 2.53825
315 2.49192
320 2.33421
325 2.63459
330 2.52763
335 2.6688
340 2.80108
345 2.74844
350 2.82587
355 3.04941
360 2.94788
365 3.09132
370 3.3224
375 3.30195
380 3.45134
385 3.57367
390 3.82916
395 4.14753
400 3.97401
405 4.07843
410 4.50582
415 4.81718
420 4.60949
425 4.81717
430 5.17528
435 5.9357
440 5.99572
445 6.50877
450 6.98721
455 7.67749
460 8.17584
465 9.26447
470 9.6763
475 9.97333
480 10.7412
485 11.5774
490 13.4457
495 15.0709
500 17.6461
505 22.0838
510 29.1668
515 40.4552
520 61.6887
525 2021.95
530 9999.9
535 9999.9
540 9999.9
545 1219.66
550 177.446
555 45.932
560 24.4483
565 17.8534
570 12.5996
575 9.96991
580 8.64491
585 8.39857
590 7.5502
595 6.97934
600 7.23892
Ex : 543
200 1.62916
205 1.85552
210 1.92616
215 1.87652
220 1.73687
225 1.90477
230 1.80031
235 1.84119
240 1.81288
245 1.95161
250 2.21174
255 2.02086
260 6.21482
265 123.141
270 98.6094
275 14.6038
280 3.61239
285 2.57302
290 2.37349
295 2.43835
300 2.51489
305 2.41569
310 2.44451
315 2.59673
320 2.81701
325 2.54959
330 2.85122
335 2.76056
340 2.73908
345 2.73642
350 2.82868
355 2.82421
360 2.8111
365 3.11336
370 3.1176
375 3.22496
380 3.41217
385 3.46226
390 3.85535
395 4.01372
400 4.13249
405 4.26909
410 4.48712
415 4.45868
420 4.97795
425 4.78955
430 5.3088
435 5.54347
440 6.05193
445 6.3635
450 6.93568
455 7.07063
460 8.24824
465 8.86978
470 9.43099
475 9.37833
480 10.2467
485 10.6391
490 12.2875
495 12.9061
500 15.0538
505 18.4084
510 22.1954
515 29.2175
520 40.6298
525 63.5993
530 1974.52
535 9999.9
540 9999.9
545 9999.9
550 1228.22
555 177.691
560 45.4791
565 24.2371
570 16.8598
575 11.8367
580 9.29364
585 8.5644
590 8.07288
595 7.49788
600 6.28957
Ex : 548
200 1.77326
205 1.88234
210 1.79478
215 1.84029
220 1.75798
225 1.65483
230 1.96611
235 1.9783
240 1.7638
245 1.98462
250 1.76378
255 1.89973
260 2.23635
265 51.3446
270 175.668
275 41.5604
280 6.89112
285 2.53615
290 2.39077
295 2.538
300 2.6934
305 2.41417
310 2.34897
315 2.38609
320 2.61702
325 2.40667
330 2.77789
335 2.50988
340 2.73539
345 3.0117
350 2.82438
355 2.9421
360 3.03913
365 3.20084
370 2.84731
375 3.14411
380 3.08655
385 3.53334
390 3.49099
395 3.69805
400 4.20215
405 4.20927
410 4.18116
415 4.14744
420 4.62934
425 4.79308
430 4.85035
435 5.42447
440 5.72921
445 6.50885
450 6.7772
455 7.092
460 7.62493
465 8.44354
470 8.86832
475 8.67611
480 9.47168
485 9.90602
490 10.5459
495 11.2477
500 12.4294
505 14.3168
510 17.2176
515 21.8933
520 27.9787
525 38.603
530 61.8073
535 2074.48
540 9999.9
545 9999.9
550 9999.9
555 1216.49
560 175.077
565 44.2912
570 23.5484
575 15.7665
580 11.1563
585 8.67266
590 7.85437
595 7.85433
600 8.50914
Ex : 553
200 1.77241
205 1.85385
210 1.79288
215 1.82698
220 1.77594
225 1.71285
230 1.87261
235 1.82137
240 1.88719
245 1.68056
250 1.75869
255 2.16473
260 2.11894
265 7.43844
270 154.6
275 128.634
280 17.8906
285 4.24109
290 2.51033
295 2.50234
300 2.78074
305 2.43576
310 2.51849
315 2.45098
320 2.48261
325 2.53958
330 2.77808
335 2.81949
340 2.88831
345 2.77961
350 2.91793
355 3.03161
360 3.22031
365 2.89626
370 2.98461
375 3.14244
380 3.25916
385 3.42673
390 3.8487
395 3.95513
400 4.09952
405 3.96003
410 4.20547
415 4.2853
420 4.42093
425 4.92721
430 5.33442
435 5.00976
440 4.91683
445 5.95509
450 6.37014
455 6.86153
460 7.40644
465 7.77049
470 8.42168
475 8.21696
480 8.95223
485 9.47919
490 10.1374
495 10.458
500 11.9683
505 12.2256
510 14.0433
515 16.8608
520 21.3963
525 27.9328
530 38.659
535 58.1434
540 1783.88
545 9999.9
550 9999.9
555 9999.9
560 1225.11
565 175.124
570 43.177
575 21.6371
580 15.3338
585 10.2457
590 8.30792
595 7.36643
600 7.90717
Ex : 558
200 1.68741
205 1.98307
210 1.97064
215 1.79536
220 1.81754
225 1.57053
230 1.76261
235 1.78819
240 1.99465
245 1.85639
250 1.99
255 2.01714
260 2.27877
265 2.3929
270 59.924
275 227.458
280 55.3205
285 8.51356
290 3.19018
295 2.40441
300 2.45963
305 2.72092
310 2.72837
315 2.66885
320 2.53256
325 2.81966
330 2.69818
335 2.7325
340 2.64412
345 2.9283
350 3.12848
355 3.08888
360 2.86008
365 3.1645
370 3.08583
375 3.18561
380 3.21352
385 3.51684
390 3.67006
395 3.41204
400 3.7619
405 4.14782
410 3.88677
415 4.21599
420 4.26296
425 4.29218
430 4.73877
435 5.39905
440 5.56444
445 5.59801
450 6.15259
455 6.53789
460 6.88063
465 7.76539
470 8.11331
475 8.01049
480 8.56924
485 8.68298
490 9.31592
495 9.39404
500 9.77286
505 11.0244
510 12.0307
515 14.0727
520 17.2827
525 21.5121
530 26.9312
535 36.6277
540 57.8682
545 1670.94
550 9999.9
555 9999.9
560 9999.9
565 1224.99
570 173.312
575 40.2959
580 19.967
585 13.478
590 9.75915
595 7.84492
600 7.93488
Ex : 563
200 2.07833
205 1.83463
210 1.96008
215 1.83226
220 1.76159
225 1.99833
230 1.83635
235 1.74108
240 1.71702
245 2.04385
250 1.85828
255 2.09771
260 1.87644
265 2.19728
270 8.35645
275 193.665
280 159.004
285 22.3003
290 4.82545
295 2.41342
300 2.59916
305 2.84369
310 2.6307
315 2.50441
320 2.50299
325 2.68459
330 2.82386
335 2.9588
340 2.42435
345 2.85543
350 2.95339
355 2.80547
360 2.78976
365 2.89
370 3.13149
375 3.12067
380 2.98249
385 3.00336
390 3.46081
395 3.56619
400 3.64662
405 3.83646
410 3.98992
415 3.93951
420 4.39724
425 4.27342
430 4.36225
435 4.81086
440 5.25087
445 5.52516
450 5.68349
455 6.31265
460 6.71988
465 7.51368
470 7.76658
475 7.87159
480 7.90183
485 8.23347
490 8.45672
495 8.98547
500 9.15914
505 10.1285
510 10.8925
515 12.2625
520 13.6935
525 16.0907
530 20.5378
535 26.7506
540 36.9423
545 56.896
550 1643.53
555 9999.9
560 9999.9
565 9999.9
570 1221.31
575 170.712
580 39.2624
585 18.8934
590 13.3178
595 9.16393
600 7.51977
Ex : 568
200 1.69003
205 1.85918
210 1.78119
215 1.97119
220 1.75225
225 2.04224
230 1.9493
235 1.80274
240 1.77189
245 1.82499
250 1.69195
255 2.08537
260 2.03704
265 2.10168
270 2.51225
275 67.7945
280 273.573
285 72.9499
290 10.7579
295 3.33756
300 2.60738
305 2.61475
310 2.52462
315 2.44142
320 2.96591
325 2.90144
330 2.7058
335 2.76987
340 2.7223
345 2.63528
350 2.99782
355 3.00342
360 2.90941
365 2.75379
370 2.89502
375 3.30736
380 3.50806
385 3.22161
390 3.43593
395 3.68925
400 3.58353
405 3.75891
410 3.97868
415 4.13973
420 4.20286
425 3.98234
430 4.09153
435 4.50536
440 5.04592
445 5.46116
450 5.79372
455 5.87716
460 6.29781
465 7.15925
470 6.78282
475 6.96438
480 7.14821
485 7.5574
490 8.02019
495 8.20914
500 8.51651
505 8.93699
510 9.82571
515 10.4521
520 11.8821
525 13.5021
530 15.9711
535 19.7224
540 24.8067
545 34.0783
550 52.2911
555 1241.81
560 9999.9
565 9999.9
570 9999.9
575 1231.84
580 168.748
585 37.0384
590 17.2284
595 12.046
600 10.6872
Ex : 573
200 1.78795
205 2.06507
210 1.69136
215 1.73085
220 1.58362
225 1.67093
230 1.59954
235 1.83085
240 1.81354
245 1.94421
250 1.68255
255 1.80277
260 1.89394
265 1.98946
270 2.12009
275 8.32823
280 219.403
285 208.59
290 28.7402
295 5.67574
300 2.72231
305 2.49558
310 2.76427
315 2.57303
320 2.43475
325 2.5551
330 2.7721
335 2.73663
340 2.66527
345 2.70639
350 2.55988
355 2.71852
360 2.90421
365 2.68542
370 2.88564
375 3.04866
380 3.12457
385 3.25814
390 3.35521
395 3.39814
400 3.49279
405 3.29571
410 3.57806
415 3.79995
420 3.7781
425 4.17925
430 4.14036
435 4.33815
440 4.57697
445 5.15761
450 5.38484
455 5.26277
460 5.80908
465 6.60083
470 6.7678
475 6.7965
480 7.46278
485 7.38602
490 7.61831
495 7.67639
500 8.0856
505 8.36953
510 9.0826
515 9.52618
520 10.2573
525 11.5815
530 13.2621
535 15.881
540 20.059
545 25.495
550 34.6763
555 51.2907
560 1102.58
565 9999.9
570 9999.9
575 9999.9
580 1225.76
585 165.03
590 35.6587
595 17.0083
600 12.0923
Ex : 578
200 1.7638
205 1.82456
210 1.87567
215 1.68591
220 1.85517
225 1.81669
230 1.64698
235 1.68364
240 1.68488
245 1.56816
250 1.4879
255 1.80146
260 1.6593
265 1.64831
270 1.8755
275 2.21578
280 79.3964
285 325.273
290 89.6802
295 12.7537
300 3.60212
305 2.34498
310 2.28678
315 2.4542
320 2.60421
325 2.48802
330 2.43792
335 2.54523
340 2.49095
345 2.46709
350 2.65051
355 2.62746
360 2.63693
365 2.46968
370 2.73316
375 2.82678
380 3.03739
385 3.0981
390 2.91117
395 3.04063
400 3.2045
405 3.08914
410 3.28021
415 3.71683
420 3.77566
425 3.86991
430 4.03547
435 3.80027
440 3.9878
445 4.36336
450 5.01734
455 5.50449
460 6.0053
465 6.34549
470 6.05965
475 6.34673
480 6.52002
485 6.54586
490 6.91744
495 6.97307
500 7.34392
505 7.85386
510 8.40137
515 8.49702
520 9.01209
525 9.97282
530 10.9633
535 12.4008
540 14.6696
545 18.6465
550 23.8085
555 32.9666
560 49.3564
565 963.018
570 9999.9
575 9999.9
580 9942.38
585 1202.9
590 160.718
595 33.2769
600 15.9344
Ex : 583
200 1.75324
205 1.50931
210 1.50375
215 1.59788
220 1.63866
225 1.47666
230 1.75597
235 1.5495
240 1.74773
245 1.67787
250 1.67087
255 1.80372
260 1.80392
265 1.76816
270 1.81662
275 2.09212
280 9.31474
285 251.804
290 240.83
295 33.1047
300 5.71958
305 2.52802
310 2.25082
315 2.62761
320 2.47478
325 2.48648
330 2.43569
335 2.3831
340 2.43847
345 2.2881
350 2.58769
355 2.47639
360 2.36027
365 2.59759
370 2.74614
375 2.78585
380 2.66394
385 2.99294
390 2.90208
395 2.89369
400 3.32315
405 3.17113
410 3.39007
415 3.51087
420 3.47537
425 3.65046
430 3.63959
435 3.5456
440 3.84823
445 3.76312
450 4.23844
455 4.83438
460 5.55402
465 6.07534
470 5.96613
475 5.61804
480 6.2726
485 6.69222
490 6.58738
495 6.30502
500 6.38388
505 6.489
510 7.0522
515 7.75783
520 7.86855
525 8.46868
530 9.23001
535 10.6142
540 11.8316
545 14.1915
550 17.2612
555 22.5869
560 29.9186
565 43.3222
570 820.022
575 9999.9
580 9999.9
585 8079.42
590 980.921
595 131.335
600 29.7114
Ex : 588
200 1.482
205 1.61582
210 1.69435
215 1.24107
220 1.3934
225 1.53533
230 1.50107
235 1.43621
240 1.37198
245 1.5947
250 1.41139
255 1.60061
260 1.61292
265 1.65906
270 1.71809
275 2.02316
280 2.24208
285 83.1193
290 373.622
295 107.972
300 14.4983
305 3.4634
310 2.42041
315 2.24536
320 2.38878
325 2.37553
330 2.23719
335 2.35968
340 2.28714
345 2.3034
350 2.24047
355 2.48958
360 2.51162
365 2.54791
370 2.65073
375 2.56024
380 2.6782
385 2.58825
390 2.69645
395 2.84608
400 2.87451
405 2.99173
410 3.06251
415 3.19836
420 2.97109
425 3.28838
430 3.42399
435 3.39708
440 3.7356
445 4.3857
450 4.5111
455 4.5035
460 5.06721
465 5.84591
470 5.82021
475 5.21181
480 5.80469
485 5.74027
490 6.19369
495 6.04343
500 6.64621
505 6.23963
510 6.48066
515 6.60212
520 7.25278
525 7.20931
530 8.08739
535 8.83597
540 9.97552
545 11.3915
550 13.3407
555 17.0157
560 21.8412
565 28.1542
570 40.3206
575 749.204
580 9999.9
585 9999.9
590 7419.45
595 897.994
600 124.052
Ex : 593
200 1.27682
205 1.30828
210 1.50062
215 1.45672
220 1.31634
225 1.55139
230 1.38303
235 1.40494
240 1.38827
245 1.34205
250 1.29201
255 1.47625
260 1.41912
265 1.55029
270 1.61318
275 1.80887
280 1.86522
285 8.8521
290 280.492
295 286.183
300 40.2665
305 6.65406
310 2.44373
315 2.52955
320 2.37629
325 2.32343
330 2.24008
335 2.12011
340 2.38426
345 2.25331
350 2.33748
355 2.44207
360 2.51855
365 2.48468
370 2.54247
375 2.55306
380 2.6935
385 2.39163
390 2.71297
395 3.00145
400 3.12801
405 3.12753
410 2.98429
415 2.80688
420 2.98413
425 3.17659
430 3.27992
435 3.59727
440 3.0809
445 3.22855
450 3.93655
455 4.23541
460 4.39103
465 4.98386
470 5.43718
475 5.02396
480 5.42919
485 5.45253
490 5.37514
495 5.57773
500 5.82447
505 5.9728
510 6.31616
515 6.24789
520 6.76877
525 7.3713
530 7.17042
535 7.72231
540 8.41895
545 9.28955
550 10.1585
555 12.7838
560 16.5783
565 19.8505
570 25.5342
575 36.4821
580 649.306
585 9999.9
590 9999.9
595 6401.23
600 984.073
Ex : 598
200 1.49426
205 1.44144
210 1.42982
215 1.39829
220 1.44493
225 1.37062
230 1.14312
235 1.50725
240 1.38781
245 1.26763
250 1.6581
255 1.4375
260 1.544
265 1.52587
270 1.65435
275 1.9409
280 1.89838
285 2.13779
290 93.4318
295 435.163
300 131.342
305 17.1585
310 3.98268
315 2.38114
320 2.23724
325 2.35309
330 2.51561
335 2.24269
340 2.033
345 2.15986
350 2.12304
355 2.16043
360 2.32926
365 2.61591
370 2.74585
375 2.49491
380 2.54867
385 2.70117
390 2.63381
395 2.64769
400 2.79512
405 2.95295
410 2.90749
415 2.83838
420 2.97824
425 2.91097
430 3.24852
435 3.39679
440 3.70622
445 3.29394
450 3.54786
455 4.00588
460 4.28982
465 4.55347
470 4.67735
475 5.01073
480 5.11018
485 5.29034
490 6.02065
495 5.45805
500 5.30626
505 5.54658
510 5.58208
515 6.01031
520 6.24273
525 6.4327
530 6.80026
535 7.52557
540 7.36627
545 8.73229
550 9.59501
555 10.7498
560 12.0934
565 15.089
570 18.7851
575 23.5319
580 33.2711
585 636.609
590 9999.9
595 9999.9
600 9999.9
Ex : 603
200 1.40853
205 1.53438
210 1.51219
215 1.52057
220 1.32796
225 1.38504
230 1.51939
235 1.48881
240 1.21214
245 1.48939
250 1.41529
255 1.47928
260 1.46849
265 1.41898
270 1.55393
275 1.59588
280 1.7333
285 2.01424
290 8.8066
295 320.083
300 350.941
305 48.9809
310 7.87772
315 2.76917
320 2.2443
325 2.65698
330 2.55333
335 2.29184
340 1.99321
345 2.22683
350 2.14146
355 2.1487
360 2.08229
365 2.35437
370 2.32123
375 2.32769
380 2.65974
385 2.51262
390 2.52599
395 2.70544
400 2.81863
405 2.88164
410 2.92883
415 2.75903
420 2.89543
425 2.81855
430 3.18571
435 3.14703
440 3.21943
445 3.36535
450 3.54389
455 3.82913
460 4.49319
465 4.52118
470 4.42838
475 4.6211
480 5.12329
485 5.10967
490 4.84551
495 5.16416
500 5.42014
505 5.4603
510 5.3462
515 5.73197
520 5.55398
525 5.77572
530 5.85874
535 6.29411
540 6.67493
545 7.73512
550 8.26126
555 9.19885
560 9.81879
565 11.8345
570 14.1751
575 16.6882
580 20.8749
585 28.6627
590 541.086
595 9999.9
600 9999.9
