File format V 1.0
mar. 14. juin 10:06:40 2016
Operator : 
Comments : 

=============================================
SpectroFluorometer parameters
Mode : 3D measurement
Data : Fluorescence
Phospho. : Ordinary
Spectrum : Fluorescence

Scan speed : 2400 nm/mn
Response : 100 ms
PM Voltage : 700 V
Shutter : On

Lambda Ex. Start : 203
Lambda Ex. End : 603
Lambda Ex. Step : 5
Ex. Slit : 5 nm

Lambda Em. Start : 200
Lambda Em. End : 600
Lambda Em. Step : 5
Em. Slit : 5 nm

Repetition : 1
Decal lambda em : 10
=============================================
DATA
Ex : 203
200 20.5693
205 13.9154
210 17.7814
215 14.0937
220 15.6369
225 18.2768
230 19.996
235 12.2335
240 15.9758
245 12.5755
250 15.2429
255 15.9898
260 15.3523
265 12.3353
270 15.3316
275 25.3503
280 22.0873
285 22.7766
290 20.0368
295 18.6187
300 21.5431
305 21.2592
310 19.9008
315 24.5783
320 32.6295
325 29.6296
330 29.6009
335 31.9109
340 34.062
345 36.4336
350 37.8876
355 37.0479
360 42.3851
365 41.3781
370 44.0407
375 51.0898
380 49.9909
385 50.3894
390 51.3349
395 48.917
400 52.2357
405 47.6258
410 57.9241
415 54.0184
420 57.2906
425 55.749
430 57.9548
435 55.0232
440 57.7191
445 54.0611
450 57.3548
455 58.4199
460 59.4895
465 65.9673
470 69.3291
475 51.4597
480 64.2778
485 60.3805
490 59.9836
495 46.2221
500 51.2898
505 52.7252
510 57.551
515 47.8227
520 54.1658
525 50.8179
530 45.4222
535 49.8891
540 51.3934
545 45.2259
550 48.5017
555 44.742
560 47.8156
565 40.496
570 46.8463
575 42.3044
580 40.8865
585 41.0171
590 35.0058
595 32.019
600 12.5057
Ex : 208
200 10.6946
205 16.0031
210 13.0504
215 10.7201
220 17.9004
225 12.9668
230 16.6123
235 12.6491
240 15.3786
245 16.4264
250 12.3861
255 18.2163
260 16.0121
265 15.2299
270 18.7584
275 17.2307
280 17.9243
285 17.9058
290 21.8068
295 17.8184
300 23.2035
305 19.5723
310 24.5911
315 30.4695
320 32.0373
325 35.1102
330 39.1877
335 33.8194
340 37.7609
345 39.395
350 42.0332
355 38.5299
360 44.6586
365 41.5725
370 39.0373
375 47.9896
380 45.2201
385 48.9141
390 52.446
395 56.5627
400 55.7598
405 50.742
410 52.8553
415 57.6027
420 61.2012
425 63.4945
430 54.1027
435 54.628
440 58.7107
445 52.3887
450 62.5914
455 60.0294
460 60.9567
465 69.3155
470 63.1251
475 65.3275
480 56.7396
485 58.2997
490 57.8821
495 55.2314
500 55.2789
505 56.7465
510 48.1625
515 54.7247
520 53.4986
525 52.3815
530 57.621
535 53.6409
540 48.4824
545 54.6162
550 48.5021
555 44.0088
560 47.2586
565 46.9485
570 50.0812
575 42.6894
580 38.3288
585 36.1991
590 27.9385
595 34.5584
600 10.7268
Ex : 213
200 15.8667
205 16.7457
210 16.4885
215 15.1234
220 10.583
225 15.5299
230 11.773
235 8.60988
240 10.8353
245 12.0379
250 12.197
255 9.73609
260 16.2868
265 17.868
270 16.5182
275 17.4485
280 20.2932
285 18.6268
290 22.5901
295 19.4128
300 27.4515
305 25.3925
310 29.0346
315 26.7016
320 29.9091
325 33.7946
330 30.2718
335 31.2397
340 31.3316
345 41.1082
350 37.2108
355 44.376
360 38.4204
365 43.6839
370 45.926
375 45.5911
380 45.2405
385 53.6709
390 49.6799
395 57.562
400 52.0421
405 54.8275
410 50.691
415 57.8878
420 59.8265
425 55.6009
430 52.3241
435 56.7876
440 54.9932
445 57.5237
450 67.5651
455 67.2995
460 68.6828
465 70.9421
470 74.2844
475 65.1827
480 57.3322
485 58.9149
490 65.7413
495 54.3449
500 48.6218
505 51.0205
510 52.9855
515 49.9594
520 51.4355
525 52.3438
530 48.9335
535 48.3908
540 57.7842
545 52.7553
550 50.4606
555 49.12
560 54.817
565 52.0121
570 46.4566
575 46.3993
580 44.8525
585 37.7459
590 37.7741
595 34.0346
600 18.3055
Ex : 218
200 10.9631
205 12.6458
210 15.7131
215 11.1819
220 12.1519
225 14.2205
230 11.6323
235 17.1352
240 13.2426
245 11.0573
250 17.2053
255 14.5259
260 18.563
265 15.6447
270 14.8354
275 20.4114
280 20.7393
285 21.6498
290 24.9749
295 23.9632
300 23.3419
305 19.5227
310 25.4908
315 26.4287
320 27.9851
325 27.9639
330 42.0709
335 39.2089
340 38.0985
345 43.6056
350 45.111
355 45.8947
360 39.8445
365 47.3551
370 44.3079
375 47.3533
380 48.5847
385 55.2758
390 57.8244
395 60.323
400 59.1835
405 55.5984
410 64.6532
415 58.6795
420 57.0783
425 57.658
430 60.7611
435 58.3598
440 53.5598
445 59.9192
450 65.5158
455 59.9438
460 60.9031
465 70.8896
470 65.0534
475 56.8146
480 65.637
485 58.2397
490 60.8232
495 45.7587
500 57.0033
505 52.8874
510 47.8855
515 46.9647
520 51.4513
525 51.5538
530 52.8225
535 53.964
540 49.591
545 54.3438
550 48.5408
555 45.3076
560 52.5162
565 52.6763
570 52.8609
575 45.7553
580 43.8101
585 39.3279
590 42.5197
595 38.2216
600 13.9205
Ex : 223
200 14.5278
205 9.81172
210 10.5735
215 13.7635
220 13.2633
225 12.6065
230 13.1204
235 20.7053
240 17.3792
245 13.9966
250 14.8667
255 12.9798
260 12.5686
265 16.7564
270 18.9683
275 18.7023
280 18.2844
285 21.1526
290 19.1352
295 26.1179
300 26.5321
305 23.2644
310 27.5308
315 30.0966
320 30.5325
325 30.6852
330 33.2823
335 33.5623
340 36.6171
345 45.076
350 41.5162
355 40.4693
360 38.9764
365 48.3205
370 40.4896
375 55.3896
380 49.696
385 50.8152
390 54.3255
395 53.9501
400 55.0049
405 54.7224
410 56.3872
415 59.042
420 61.4869
425 58.0958
430 58.3994
435 61.7206
440 60.5762
445 65.2848
450 59.6339
455 67.048
460 69.1117
465 67.9019
470 69.9289
475 56.786
480 64.4838
485 63.1053
490 58.1824
495 57.7828
500 53.2144
505 49.7459
510 44.5554
515 52.7693
520 52.3973
525 53.3948
530 52.1587
535 55.9273
540 55.5164
545 54.014
550 54.7867
555 62.2195
560 51.3267
565 46.7078
570 56.205
575 48.1972
580 48.1186
585 45.1067
590 36.4627
595 38.7982
600 43.2308
Ex : 228
200 10.9694
205 11.5898
210 13.412
215 9.65433
220 11.203
225 17.0555
230 18.458
235 12.5835
240 15.6234
245 11.7931
250 12.3573
255 15.2
260 17.7238
265 19.8951
270 16.79
275 17.4075
280 19.7791
285 17.0769
290 18.9793
295 27.5682
300 25.1256
305 31.0646
310 29.5491
315 28.0113
320 33.097
325 34.5824
330 38.996
335 40.3496
340 38.4939
345 39.1816
350 42.7405
355 39.1812
360 37.623
365 43.3087
370 48.2007
375 45.3941
380 45.1852
385 47.1044
390 56.0347
395 50.6329
400 54.6541
405 48.34
410 62.7916
415 64.6132
420 56.9031
425 62.2347
430 51.7585
435 63.4663
440 54.8969
445 65.5566
450 77.7129
455 96.0171
460 104.541
465 79.1362
470 67.1764
475 63.2422
480 60.1012
485 54.339
490 50.4419
495 54.6096
500 48.9959
505 46.9144
510 49.9104
515 49.4747
520 53.2894
525 55.8302
530 51.9928
535 50.0907
540 59.2004
545 53.3078
550 51.2511
555 55.8557
560 56.2429
565 50.3899
570 54.0956
575 52.7829
580 46.6782
585 42.829
590 39.8072
595 39.1504
600 51.6455
Ex : 233
200 13.188
205 15.2387
210 12.6223
215 11.3791
220 14.4129
225 24.0372
230 41.0871
235 20.6483
240 13.4328
245 11.2876
250 13.8657
255 12.3195
260 14.0823
265 13.8299
270 17.44
275 16.589
280 17.1457
285 20.3449
290 23.4206
295 18.5261
300 25.6761
305 26.5033
310 24.2774
315 28.3078
320 31.1403
325 34.8088
330 41.6644
335 36.1028
340 33.9012
345 38.3382
350 41.0396
355 44.9256
360 43.7508
365 38.9107
370 46.713
375 46.7759
380 46.9888
385 52.8296
390 51.9893
395 54.2989
400 52.9382
405 50.3911
410 53.1353
415 55.0727
420 50.0942
425 48.4504
430 48.731
435 49.9586
440 47.9735
445 56.5009
450 61.481
455 94.4946
460 195.945
465 309.14
470 223.652
475 93.4585
480 61.4704
485 58.699
490 50.8783
495 55.0671
500 49.0095
505 43.127
510 49.074
515 48.1553
520 49.4083
525 57.9049
530 57.2566
535 49.3762
540 55.4249
545 50.5555
550 50.597
555 55.3924
560 56.8625
565 50.4236
570 47.8096
575 47.8454
580 45.1138
585 35.7151
590 38.637
595 34.2127
600 31.7201
Ex : 238
200 14.0481
205 9.68093
210 10.4387
215 9.78909
220 11.1181
225 13.2987
230 45.1596
235 82.2631
240 29.2959
245 11.1977
250 11.7652
255 18.1644
260 19.2764
265 16.3293
270 16.6517
275 19.0527
280 17.1417
285 19.4637
290 18.8828
295 19.8537
300 26.3705
305 27.3023
310 24.4728
315 26.1839
320 29.5013
325 31.1345
330 30.9041
335 34.858
340 32.1968
345 44.0767
350 41.7617
355 36.621
360 39.3023
365 39.981
370 45.7825
375 47.0633
380 48.7065
385 45.4564
390 47.1724
395 51.2026
400 57.4728
405 51.9054
410 47.2096
415 52.6186
420 47.7146
425 45.1084
430 45.1561
435 51.2147
440 49.4345
445 53.4047
450 56.0448
455 53.557
460 67.2982
465 193.165
470 463.58
475 548.784
480 367.602
485 107.888
490 56.5562
495 43.8414
500 46.9729
505 47.3033
510 51.7685
515 49.0645
520 55.223
525 54.4267
530 53.3358
535 54.1341
540 51.1164
545 51.5715
550 49.2772
555 53.1511
560 49.4436
565 51.0177
570 48.5403
575 42.9691
580 45.5042
585 41.9948
590 33.8097
595 34.6047
600 51.4131
Ex : 243
200 7.81515
205 8.90545
210 9.60382
215 8.82224
220 9.06812
225 10.002
230 17.2705
235 84.705
240 118.399
245 37.5167
250 14.7947
255 12.817
260 17.178
265 14.8284
270 18.9091
275 17.7113
280 14.993
285 15.8365
290 22.2746
295 21.32
300 16.8539
305 20.1463
310 20.6205
315 25.4535
320 24.5599
325 27.18
330 28.1413
335 29.9436
340 35.5512
345 32.2546
350 38.0973
355 34.0801
360 37.3533
365 35.4109
370 38.3436
375 40.4687
380 45.8704
385 47.3558
390 47.2401
395 47.9845
400 48.7781
405 42.7163
410 44.429
415 46.6321
420 40.7053
425 44.825
430 45.2239
435 42.4808
440 39.4415
445 44.2989
450 48.5905
455 45.7212
460 48.0787
465 50.5585
470 75.7422
475 317.373
480 663.473
485 724.915
490 423.368
495 115.811
500 48.2299
505 41.0905
510 40.5001
515 45.5865
520 56.2374
525 59.5238
530 60.4163
535 51.7459
540 51.8717
545 50.7638
550 48.4415
555 52.6698
560 48.404
565 44.884
570 47.8508
575 40.2709
580 38.1371
585 40.0096
590 33.4142
595 30.7649
600 28.1669
Ex : 248
200 8.29867
205 7.77391
210 6.04094
215 5.99729
220 8.38384
225 10.489
230 8.53744
235 14.899
240 104.254
245 140.106
250 38.649
255 15.7443
260 17.1502
265 17.926
270 17.1152
275 17.9225
280 15.9455
285 16.284
290 15.8588
295 21.7008
300 17.8047
305 19.8906
310 21.3169
315 21.19
320 24.3211
325 25.7857
330 30.2012
335 29.612
340 30.6235
345 32.3851
350 34.0279
355 31.9407
360 30.3211
365 35.8082
370 33.5685
375 32.8128
380 33.3093
385 34.5702
390 39.3915
395 38.5616
400 38.9205
405 37.5957
410 38.765
415 37.8927
420 42.684
425 38.1604
430 37.1202
435 40.6646
440 35.8403
445 38.3259
450 41.3844
455 42.4886
460 42.965
465 50.4702
470 50.6806
475 40.834
480 98.9231
485 422.297
490 877.377
495 823.538
500 384.598
505 90.8724
510 52.4051
515 56.4559
520 53.474
525 57.6548
530 59.3875
535 56.2764
540 55.1382
545 52.826
550 50.8938
555 45.0066
560 43.9273
565 47.2915
570 42.0215
575 43.1856
580 43.7903
585 38.5728
590 33.9817
595 29.9858
600 21.3333
Ex : 253
200 4.27872
205 5.3563
210 5.97422
215 5.05426
220 7.63252
225 7.57702
230 7.38287
235 8.08126
240 15.4059
245 121.475
250 233.332
255 93.2705
260 23.1036
265 18.1121
270 16.4873
275 16.2159
280 15.6598
285 14.6077
290 15.0784
295 15.3456
300 16.8614
305 19.2633
310 20.3564
315 21.2324
320 21.274
325 22.7923
330 22.948
335 26.3248
340 27.1638
345 31.0641
350 26.8141
355 26.2428
360 28.9685
365 29.4193
370 29.302
375 27.9744
380 30.4125
385 34.8693
390 30.6751
395 33.1445
400 35.7815
405 40.8663
410 38.9959
415 32.607
420 29.7533
425 32.0637
430 30.8822
435 30.8138
440 31.4582
445 30.5986
450 30.5065
455 32.6499
460 36.2504
465 37.1665
470 37.9313
475 33.6813
480 35.8092
485 35.016
490 104.897
495 423.805
500 901.502
505 1427.78
510 966.629
515 238.821
520 86.2421
525 60.2474
530 58.6117
535 54.9305
540 54.2274
545 52.808
550 49.3729
555 47.5977
560 42.1354
565 39.6401
570 36.8469
575 35.9546
580 39.2749
585 33.4949
590 30.6396
595 29.713
600 20.416
Ex : 258
200 5.24532
205 5.34852
210 6.84534
215 4.96937
220 6.09534
225 6.71402
230 6.59385
235 6.90479
240 6.4308
245 18.4361
250 417.299
255 1271.64
260 387.699
265 63.0835
270 22.807
275 21.3686
280 19.0318
285 16.291
290 15.1667
295 15.9096
300 15.0592
305 17.7083
310 21.8692
315 22.5375
320 21.0747
325 21.5688
330 22.8842
335 26.2267
340 23.3362
345 23.4293
350 26.7356
355 24.6814
360 26.4977
365 27.8365
370 26.0414
375 26.9401
380 23.5273
385 28.5991
390 28.8384
395 28.6533
400 29.2773
405 28.0563
410 29.5848
415 29.7157
420 28.7062
425 28.4426
430 27.3541
435 28.6089
440 27.2933
445 30.4533
450 27.4489
455 27.8796
460 33.9009
465 33.8848
470 31.2675
475 29.4433
480 32.125
485 31.8079
490 30.6837
495 30.5262
500 116.468
505 1061.95
510 4346.83
515 8364.85
520 4193.25
525 773.555
530 162.919
535 77.8365
540 62.2162
545 58.6285
550 52.7557
555 55.2212
560 54.5689
565 48.7909
570 41.2287
575 36.1229
580 33.2328
585 32.0061
590 28.3299
595 29.0203
600 24.5031
Ex : 263
200 5.4727
205 5.39455
210 5.23382
215 5.7027
220 6.35628
225 6.88273
230 4.50986
235 5.82691
240 8.42481
245 7.59657
250 72.4206
255 1543.63
260 2918.52
265 853.941
270 121.665
275 33.3068
280 24.0634
285 18.9538
290 17.8881
295 18.4651
300 19.0239
305 23.5034
310 21.4964
315 21.4949
320 22.8403
325 22.6347
330 23.6965
335 24.3361
340 24.9968
345 25.1516
350 24.9877
355 23.7878
360 25.2501
365 25.7513
370 24.6145
375 24.5318
380 24.3259
385 23.6689
390 25.4575
395 23.5329
400 27.1624
405 25.5483
410 25.7888
415 26.2313
420 25.8408
425 25.516
430 23.9215
435 26.1517
440 25.8352
445 25.0298
450 24.7833
455 25.3368
460 28.8079
465 31.4667
470 29.777
475 30.1355
480 30.6754
485 30.8678
490 30.7366
495 32.4354
500 31.8667
505 41.6017
510 550.403
515 5055.1
520 9999.9
525 9999.9
530 6988.73
535 1221.11
540 221.489
545 94.0304
550 67.5609
555 57.9329
560 55.4757
565 54.0621
570 54.2921
575 47.3214
580 40.7684
585 35.086
590 33.4111
595 29.9066
600 34.8635
Ex : 268
200 5.47363
205 4.80605
210 5.05444
215 4.60246
220 5.13109
225 5.69099
230 5.78002
235 6.34574
240 7.25741
245 8.04
250 9.15996
255 160.948
260 2861.84
265 5260.05
270 1379.42
275 186.365
280 43.2441
285 25.2155
290 26.0069
295 21.3399
300 21.7691
305 20.2655
310 21.7908
315 22.5746
320 22.2737
325 22.3467
330 22.6878
335 23.0409
340 22.9427
345 23.416
350 22.9157
355 20.6982
360 22.6497
365 23.6874
370 21.5555
375 21.4796
380 20.9052
385 22.3081
390 23.6823
395 20.7956
400 22.7141
405 21.8146
410 20.7483
415 22.3482
420 25.7082
425 22.5934
430 21.1612
435 23.4071
440 21.2052
445 22.5061
450 24.1593
455 24.2232
460 25.853
465 29.0167
470 24.6907
475 24.8235
480 23.4297
485 26.132
490 28.5024
495 27.544
500 29.4329
505 32.2752
510 38.334
515 61.7586
520 1201.91
525 9545.5
530 9999.9
535 9999.9
540 8397.06
545 1456.67
550 249.952
555 93.526
560 67.7536
565 56.5316
570 53.1488
575 51.7504
580 51.596
585 48.9515
590 41.2748
595 37.5148
600 25.3961
Ex : 273
200 4.88216
205 4.33413
210 4.18585
215 4.46934
220 5.25004
225 4.95797
230 5.09904
235 5.84186
240 5.31753
245 6.45992
250 9.05976
255 12.0245
260 235.234
265 3956.71
270 6590.7
275 1590.18
280 213.491
285 47.39
290 26.4265
295 26.385
300 25.6346
305 23.1475
310 22.4689
315 22.0764
320 23.6041
325 21.6725
330 23.2375
335 24.5886
340 23.3078
345 22.094
350 24.067
355 23.2612
360 20.3639
365 21.8248
370 21.4497
375 19.7266
380 20.0207
385 19.8617
390 20.6822
395 19.7815
400 18.4619
405 19.0221
410 20.1194
415 19.3423
420 19.7627
425 21.0936
430 20.0671
435 19.4047
440 19.1659
445 20.8733
450 21.0186
455 21.1666
460 20.9285
465 23.2998
470 22.7923
475 21.9694
480 22.8769
485 22.7961
490 23.8718
495 24.0209
500 24.4769
505 25.1084
510 29.4375
515 35.7604
520 45.2517
525 84.5974
530 1889.08
535 9999.9
540 9999.9
545 9999.9
550 8327.45
555 1402.33
560 244.259
565 93.4568
570 64.6999
575 53.6705
580 48.2276
585 48.681
590 48.038
595 47.511
600 51.2891
Ex : 278
200 4.60027
205 4.79528
210 4.42955
215 4.11784
220 4.40813
225 4.651
230 5.64313
235 5.43632
240 5.66027
245 5.42074
250 6.21027
255 10.9088
260 15.1616
265 277.749
270 4578.97
275 7585.13
280 1857.03
285 245.816
290 51.638
295 29.8368
300 29.4403
305 27.2562
310 22.7033
315 21.9113
320 22.9426
325 22.4492
330 22.6722
335 23.7198
340 23.4032
345 22.3893
350 22.9275
355 20.3054
360 19.9864
365 19.924
370 18.686
375 18.3304
380 18.422
385 19.4216
390 17.6247
395 19.143
400 17.5221
405 17.2972
410 18.009
415 18.057
420 17.1849
425 17.347
430 17.2759
435 17.908
440 17.7711
445 17.1611
450 17.9081
455 18.1112
460 19.2361
465 20.9182
470 20.246
475 19.3348
480 19.4238
485 18.5124
490 19.478
495 20.1735
500 20.0791
505 19.5194
510 22.0968
515 25.7088
520 30.3492
525 37.5856
530 50.4444
535 93.9233
540 2164.53
545 9999.9
550 9999.9
555 9999.9
560 8190
565 1391.54
570 237.179
575 89.605
580 61.3343
585 49.4628
590 45.3982
595 41.5081
600 39.412
Ex : 283
200 3.82317
205 4.35632
210 4.08361
215 4.55307
220 4.27253
225 4.70157
230 4.7525
235 4.61311
240 5.00209
245 4.93813
250 5.91625
255 6.94794
260 10.1843
265 14.5146
270 316.748
275 5165.66
280 8015.87
285 2036.56
290 264.418
295 53.6651
300 27.5387
305 29.0843
310 26.7232
315 23.0591
320 21.4862
325 21.4591
330 22.26
335 21.6753
340 21.8205
345 20.9753
350 19.4016
355 18.1717
360 19.3398
365 17.3251
370 17.225
375 17.4257
380 16.4802
385 16.1521
390 15.7951
395 15.9151
400 16.1132
405 16.8371
410 16.3833
415 15.4901
420 15.6314
425 15.3071
430 15.5409
435 16.3219
440 15.8213
445 17.0091
450 15.8063
455 15.5164
460 17.537
465 17.2843
470 17.7182
475 16.9172
480 16.6586
485 16.5713
490 16.2442
495 17.007
500 16.4433
505 17.9163
510 18.9596
515 18.6443
520 22.0178
525 25.0356
530 30.3806
535 35.1708
540 49.8484
545 97.493
550 2331.52
555 9999.9
560 9999.9
565 9999.9
570 7714.03
575 1271.95
580 214.427
585 78.5892
590 53.8306
595 44.0993
600 46.9997
Ex : 288
200 3.44424
205 3.53087
210 3.19659
215 3.71398
220 3.51999
225 3.92352
230 3.89724
235 4.40016
240 5.26769
245 5.09873
250 5.44727
255 6.26377
260 7.81646
265 10.0382
270 15.4847
275 318.941
280 5792.04
285 8802.69
290 2234.9
295 287.955
300 56.3165
305 28.3228
310 27.1739
315 27.3677
320 24.5064
325 21.6625
330 20.6859
335 19.921
340 19.9765
345 19.4926
350 18.3952
355 18.5399
360 17.0226
365 17.8372
370 16.1943
375 15.8568
380 15.3254
385 14.6587
390 14.9133
395 14.6332
400 14.3826
405 14.6633
410 14.1429
415 13.2246
420 13.8326
425 14.0991
430 13.8844
435 13.7201
440 14.8835
445 14.9834
450 15.5451
455 14.3489
460 15.5264
465 15.5811
470 15.8113
475 14.7293
480 13.6864
485 15.648
490 15.4111
495 14.3876
500 15.1759
505 14.5858
510 15.6271
515 16.3293
520 17.4969
525 18.4264
530 21.3256
535 24.8954
540 30.337
545 37.8327
550 49.9614
555 95.7511
560 2325.39
565 9999.9
570 9999.9
575 9999.9
580 7552.67
585 1201.63
590 203.602
595 74.4423
600 59.9033
Ex : 293
200 3.37834
205 3.15185
210 3.54794
215 3.79608
220 3.64513
225 3.68073
230 3.79784
235 3.59734
240 4.18657
245 4.03148
250 5.16424
255 5.18381
260 6.31726
265 8.37454
270 10.5749
275 17.8941
280 417.548
285 6445.26
290 9860.73
295 2426.98
300 310.675
305 60.4909
310 27.1437
315 25.8311
320 27.2076
325 23.5375
330 19.5914
335 20.0749
340 18.7804
345 18.892
350 17.9127
355 17.281
360 15.8754
365 15.8937
370 15.838
375 14.6976
380 14.3707
385 14.7709
390 13.9973
395 14.1545
400 14.619
405 14.3996
410 13.1347
415 13.6401
420 12.7267
425 12.3573
430 11.8885
435 12.0329
440 12.5079
445 13.559
450 12.6914
455 13.6811
460 13.9472
465 13.7976
470 13.8447
475 12.6207
480 12.6184
485 13.0563
490 12.5346
495 13.218
500 12.6552
505 13.1607
510 12.662
515 13.67
520 14.582
525 15.9243
530 17.5416
535 18.6039
540 20.3093
545 23.7358
550 28.5164
555 35.8413
560 48.226
565 101.902
570 2562.91
575 9999.9
580 9999.9
585 9999.9
590 6420.98
595 981.587
600 183.955
Ex : 298
200 3.05653
205 3.40192
210 2.9911
215 3.6185
220 3.11455
225 3.45644
230 3.58064
235 3.94156
240 3.62448
245 3.97911
250 3.85976
255 4.68124
260 5.4053
265 6.0584
270 8.09971
275 10.7338
280 17.6892
285 446.046
290 7417.59
295 9999.9
300 2615.81
305 334.078
310 62.816
315 29.1123
320 26.4284
325 27.0184
330 22.2624
335 18.2789
340 17.5334
345 16.9837
350 17.0278
355 16.0645
360 15.5104
365 14.4131
370 14.4634
375 14.5483
380 13.7711
385 13.2585
390 13.4587
395 13.2037
400 12.2966
405 12.1896
410 13.0472
415 12.4703
420 11.0945
425 11.447
430 11.091
435 11.8474
440 11.8655
445 11.3218
450 11.6463
455 11.6485
460 11.7192
465 12.7012
470 12.1492
475 10.9299
480 11.9622
485 11.3857
490 12.1883
495 11.1007
500 11.1596
505 11.1564
510 11.4706
515 11.6171
520 12.4675
525 13.1725
530 14.559
535 14.8097
540 16.6214
545 18.1171
550 20.4959
555 23.9825
560 28.2848
565 34.5061
570 47.2428
575 111.565
580 2858.9
585 9999.9
590 9999.9
595 9999.9
600 9999.9
Ex : 303
200 2.60907
205 3.3062
210 3.09416
215 2.88935
220 3.1348
225 3.1474
230 3.42949
235 3.50564
240 3.81563
245 3.94996
250 3.92358
255 4.42796
260 5.2353
265 5.17182
270 6.80789
275 8.93071
280 11.5822
285 19.1017
290 481.066
295 8190.76
300 9999.9
305 2681.91
310 344.134
315 65.1125
320 28.8614
325 25.0518
330 25.3494
335 22.8683
340 18.6393
345 16.6891
350 15.6291
355 14.3874
360 14.2362
365 13.7816
370 12.4917
375 12.7755
380 12.4829
385 11.6041
390 12.1948
395 11.8897
400 12.2126
405 11.7785
410 11.6665
415 11.214
420 11.5763
425 11.3884
430 11.055
435 11.1274
440 10.2393
445 11.0233
450 10.9802
455 11.2172
460 11.6168
465 11.5366
470 11.4745
475 11.0104
480 10.8866
485 10.3358
490 10.8698
495 10.0121
500 10.6487
505 10.466
510 10.4707
515 10.1928
520 10.0029
525 11.0728
530 12.1369
535 12.2632
540 12.6671
545 13.9776
550 15.3155
555 16.8487
560 19.1272
565 22.6751
570 27.0942
575 33.5914
580 44.981
585 119.776
590 3106.98
595 9999.9
600 9999.9
Ex : 308
200 2.72018
205 2.89415
210 2.96547
215 2.80686
220 2.75641
225 3.18987
230 3.03771
235 3.42205
240 3.46913
245 3.26292
250 3.47911
255 4.309
260 4.57929
265 4.77213
270 5.80089
275 6.62268
280 9.3031
285 11.9273
290 21.1991
295 587.191
300 9073.12
305 9999.9
310 2808.37
315 358.72
320 67.8866
325 29.1948
330 24.8774
335 25.775
340 23.1095
345 18.4726
350 15.8223
355 14.304
360 13.725
365 13.5095
370 12.0656
375 12.2319
380 11.9323
385 11.817
390 12.0318
395 11.7809
400 10.6846
405 11.5663
410 11.0086
415 10.2882
420 10.503
425 10.4584
430 10.5251
435 10.2559
440 9.93502
445 10.0622
450 10.3772
455 10.5621
460 10.3188
465 11.1976
470 10.0406
475 9.72935
480 9.81963
485 10.0156
490 9.10666
495 9.22935
500 9.64309
505 9.45308
510 9.72755
515 9.09907
520 9.09487
525 9.67098
530 10.214
535 10.7891
540 11.7315
545 11.549
550 12.6006
555 13.5353
560 15.2754
565 16.1794
570 18.5094
575 21.3792
580 26.273
585 32.9939
590 44.1305
595 138.344
600 565.34
Ex : 313
200 2.81666
205 2.65607
210 2.97371
215 2.74183
220 2.96132
225 3.10036
230 3.04861
235 3.59296
240 3.39219
245 3.29233
250 3.58637
255 3.63281
260 4.00826
265 4.70517
270 5.15844
275 5.94304
280 7.4119
285 9.2364
290 12.9972
295 20.7972
300 621.601
305 9999.9
310 9999.9
315 2998.45
320 383.623
325 70.5987
330 29.4872
335 23.8327
340 24.1843
345 22.395
350 18.2348
355 14.9302
360 13.7168
365 12.4323
370 12.8713
375 11.9829
380 12.0236
385 12.1049
390 11.1352
395 11.5372
400 11.0307
405 10.399
410 10.3733
415 10.1506
420 9.56327
425 9.91467
430 9.66284
435 9.64
440 9.74245
445 9.29895
450 9.17186
455 9.4102
460 9.59835
465 10.4707
470 10.0713
475 9.50729
480 9.40833
485 8.85398
490 9.67021
495 9.48949
500 8.939
505 8.62194
510 8.65249
515 8.51056
520 8.75184
525 9.36039
530 8.9892
535 9.57055
540 9.96553
545 10.374
550 10.8058
555 11.3145
560 11.3272
565 12.9557
570 14.2578
575 15.6852
580 18.6799
585 21.38
590 25.3813
595 32.5323
600 35.6312
Ex : 318
200 2.96093
205 2.76777
210 2.68129
215 2.7569
220 3.06804
225 3.20685
230 2.73253
235 2.94292
240 3.11227
245 3.44402
250 3.611
255 3.48233
260 3.96073
265 4.32916
270 4.74428
275 5.19722
280 6.37302
285 7.7365
290 9.67407
295 13.8536
300 23.9827
305 813.197
310 9999.9
315 9999.9
320 3206.52
325 409.422
330 75.6582
335 31.3203
340 24.1463
345 23.156
350 22.6836
355 20.0377
360 14.9526
365 13.3694
370 12.8982
375 12.4952
380 12.2108
385 11.4445
390 11.2586
395 10.8762
400 10.8171
405 10.6968
410 10.3807
415 9.84863
420 9.77084
425 9.42757
430 9.0214
435 9.46422
440 8.89466
445 8.64599
450 9.02533
455 9.03988
460 9.40109
465 10.0927
470 9.29043
475 9.0896
480 8.10502
485 8.08498
490 8.62876
495 8.50198
500 8.23807
505 8.33608
510 8.33918
515 8.15237
520 8.18024
525 8.2195
530 7.86417
535 8.32146
540 9.16181
545 9.29358
550 9.06615
555 9.95398
560 10.4406
565 10.7139
570 11.4833
575 12.8212
580 13.2513
585 15.4169
590 17.6529
595 20.1292
600 24.6384
Ex : 323
200 2.711
205 2.6443
210 2.91037
215 3.06573
220 2.97849
225 2.90218
230 3.29853
235 3.10589
240 3.22155
245 3.3424
250 3.12123
255 3.09757
260 3.54246
265 3.95895
270 4.51977
275 4.73985
280 5.45641
285 6.70555
290 8.22503
295 10.6404
300 15.2234
305 24.8949
310 839.436
315 9999.9
320 9999.9
325 3587.17
330 454.808
335 81.4098
340 31.4915
345 22.8166
350 22.6847
355 22.8963
360 18.6643
365 15.0934
370 12.9868
375 12.38
380 12.0939
385 11.7366
390 11.2786
395 10.9571
400 10.8561
405 10.4468
410 10.5658
415 10.151
420 9.38768
425 9.22313
430 8.69927
435 8.67919
440 8.50391
445 8.35087
450 8.88495
455 8.36396
460 8.44072
465 8.75915
470 8.79765
475 7.79919
480 8.33344
485 7.68022
490 8.15086
495 7.67489
500 7.5341
505 7.86006
510 7.63952
515 7.37815
520 7.46169
525 7.64145
530 7.49543
535 7.14314
540 7.85655
545 8.05859
550 8.43461
555 8.64955
560 8.43142
565 9.55743
570 9.58955
575 10.3812
580 11.2568
585 11.7496
590 12.5855
595 14.6162
600 13.8555
Ex : 328
200 2.41514
205 2.30273
210 2.36979
215 2.66459
220 2.76684
225 2.72797
230 2.65239
235 3.00585
240 3.02663
245 3.09117
250 3.11979
255 3.11958
260 3.55158
265 3.78211
270 3.63429
275 4.36787
280 4.88098
285 5.73007
290 7.01134
295 8.50848
300 10.8329
305 14.8062
310 26.8788
315 881.958
320 9999.9
325 9999.9
330 3724
335 474.19
340 84.6784
345 32.8441
350 23.2962
355 21.7503
360 21.3436
365 20.2421
370 16.3717
375 13.3841
380 12.8172
385 12.8032
390 11.9131
395 11.5268
400 11.2207
405 11.0215
410 10.2985
415 10.1671
420 9.67141
425 9.07427
430 8.64938
435 8.22124
440 8.52143
445 8.65288
450 8.86298
455 8.23412
460 8.47887
465 8.6992
470 8.48145
475 7.88836
480 7.76966
485 7.58677
490 7.65243
495 7.22516
500 7.27852
505 7.48138
510 7.04964
515 7.08431
520 7.02488
525 7.15066
530 7.58932
535 6.8273
540 7.27819
545 7.35534
550 7.08819
555 7.87316
560 8.11404
565 8.28696
570 8.36082
575 8.64523
580 9.37243
585 9.79421
590 10.5349
595 11.2831
600 11.8292
Ex : 333
200 2.53584
205 2.45902
210 2.66731
215 2.58436
220 2.5292
225 2.44513
230 2.70026
235 2.69406
240 2.55031
245 2.79601
250 3.10613
255 3.27
260 3.26157
265 3.70919
270 3.95105
275 4.27942
280 4.66229
285 5.11095
290 6.14778
295 7.20181
300 8.79774
305 11.5656
310 17.0065
315 29.1918
320 1103.93
325 9999.9
330 9999.9
335 4045.29
340 513.254
345 90.1468
350 33.6736
355 23.1084
360 21.1369
365 20.9924
370 20.8469
375 17.2761
380 13.9377
385 12.8771
390 12.0713
395 12.1226
400 11.6462
405 10.5624
410 10.2952
415 10.3593
420 9.75933
425 9.69681
430 9.20177
435 8.84722
440 8.78999
445 8.6781
450 8.28786
455 8.69246
460 8.82537
465 8.93882
470 8.38732
475 7.80912
480 7.88106
485 7.58955
490 7.06305
495 7.17475
500 6.93884
505 6.91506
510 6.7717
515 6.3737
520 6.65586
525 6.87561
530 7.1574
535 7.10029
540 7.01917
545 7.06538
550 6.85395
555 7.50441
560 7.3763
565 7.03866
570 8.05979
575 7.35357
580 8.19454
585 8.38049
590 9.18094
595 9.37752
600 11.0427
Ex : 338
200 2.35192
205 2.7107
210 2.49352
215 2.43415
220 2.64313
225 2.534
230 2.76396
235 2.69589
240 2.67664
245 2.71732
250 3.05531
255 3.09877
260 3.24426
265 3.38862
270 3.57643
275 4.08874
280 4.23596
285 4.25693
290 5.47155
295 5.89937
300 7.49388
305 8.94535
310 12.1592
315 18.1919
320 31.4674
325 1227.5
330 9999.9
335 9999.9
340 4145.12
345 524.705
350 92.173
355 33.7135
360 22.6323
365 20.9801
370 20.3823
375 20.0624
380 18.2087
385 14.372
390 13.1252
395 12.2915
400 11.9322
405 11.0779
410 10.4868
415 10.1881
420 9.92914
425 9.45239
430 9.24791
435 8.91561
440 8.8918
445 8.60938
450 8.25939
455 8.24901
460 8.09463
465 8.56258
470 8.23651
475 7.4974
480 7.84537
485 7.43544
490 7.46129
495 7.07405
500 6.93096
505 6.57213
510 6.30798
515 6.41179
520 6.41283
525 6.81677
530 6.42843
535 6.58538
540 6.64268
545 6.53643
550 6.52082
555 6.62419
560 6.73106
565 6.57017
570 6.84552
575 7.0144
580 7.11673
585 7.13674
590 8.00242
595 8.09876
600 5.55797
Ex : 343
200 2.12222
205 2.13447
210 2.18078
215 2.47578
220 2.29781
225 2.36389
230 2.48576
235 2.34129
240 2.59469
245 2.62847
250 2.88614
255 3.07905
260 3.04326
265 3.26004
270 3.2207
275 3.66068
280 3.78417
285 4.18689
290 4.76357
295 5.17893
300 6.20632
305 7.70596
310 9.7015
315 13.0743
320 19.4328
325 33.9462
330 1234.23
335 9999.9
340 9999.9
345 4335.72
350 547.813
355 95.1473
360 33.4011
365 22.3753
370 19.1583
375 19.9798
380 19.8574
385 18.4275
390 15.1818
395 12.5694
400 11.8366
405 11.3676
410 10.6
415 10.1204
420 9.51857
425 9.06515
430 8.94161
435 8.79229
440 8.56026
445 8.58431
450 8.04932
455 7.99482
460 8.1244
465 8.33863
470 7.95375
475 7.5771
480 7.58883
485 7.169
490 6.66822
495 6.6518
500 6.58022
505 6.15371
510 5.8859
515 5.84745
520 5.80076
525 6.10304
530 5.99946
535 6.02271
540 6.06522
545 5.8307
550 5.84692
555 6.07056
560 6.00121
565 6.10726
570 5.81601
575 6.10289
580 6.39382
585 6.51864
590 6.33744
595 6.91505
600 5.96214
Ex : 348
200 2.23662
205 2.07438
210 2.17053
215 2.12923
220 2.17641
225 2.24288
230 2.37361
235 2.44244
240 2.4178
245 2.42166
250 2.62387
255 2.53728
260 2.92775
265 2.9932
270 3.14822
275 3.57314
280 3.59494
285 3.95852
290 4.25652
295 4.64201
300 5.12578
305 6.0435
310 7.48743
315 9.92885
320 13.3698
325 19.1436
330 34.283
335 1178.67
340 9999.9
345 9999.9
350 4953.81
355 619.352
360 103.063
365 35.2694
370 23.5645
375 19.2938
380 18.3487
385 19.1824
390 18.7068
395 15.8243
400 12.9844
405 11.8127
410 11.2063
415 10.6027
420 9.95408
425 9.48728
430 9.04721
435 9.03286
440 8.28136
445 8.48893
450 8.12285
455 7.58803
460 7.917
465 7.91776
470 7.77828
475 7.20169
480 7.1449
485 7.11379
490 6.97785
495 6.39835
500 6.12387
505 5.93223
510 5.67265
515 5.51639
520 5.71073
525 5.69309
530 5.48831
535 5.45223
540 5.64816
545 5.60428
550 5.53635
555 5.78471
560 5.45291
565 5.52981
570 5.19208
575 5.61014
580 5.52978
585 5.48019
590 5.5258
595 5.84866
600 6.47665
Ex : 353
200 2.06543
205 2.00469
210 2.14333
215 1.86506
220 2.05611
225 2.37763
230 2.15578
235 2.33052
240 2.30638
245 2.3302
250 2.42521
255 2.74584
260 2.70911
265 2.75343
270 2.94783
275 3.4
280 3.40088
285 3.78943
290 3.73702
295 4.2348
300 4.83067
305 5.80188
310 6.66448
315 8.00036
320 9.86347
325 13.6169
330 20.4469
335 35.4585
340 1266.58
345 9999.9
350 9999.9
355 4900.3
360 613.544
365 103.73
370 36.2911
375 23.7143
380 19.4766
385 17.7798
390 19.3457
395 18.7203
400 16.2153
405 13.2089
410 11.6156
415 10.6345
420 10.0589
425 9.5506
430 9.06942
435 8.72064
440 8.33272
445 8.32495
450 8.3081
455 7.88942
460 7.76678
465 7.67355
470 7.71034
475 7.47917
480 7.0175
485 6.81807
490 6.74317
495 6.51262
500 6.00634
505 5.69706
510 5.61284
515 5.24531
520 5.28486
525 5.13655
530 5.22445
535 5.21693
540 4.92076
545 5.01939
550 5.03118
555 5.24695
560 5.11536
565 5.07545
570 5.08867
575 4.86572
580 5.11268
585 5.07361
590 5.01173
595 5.13402
600 4.44157
Ex : 358
200 1.91596
205 1.98079
210 1.8895
215 1.97674
220 2.05548
225 2.12088
230 2.05371
235 2.14216
240 2.17704
245 2.35621
250 2.43311
255 2.41108
260 2.4244
265 2.61474
270 2.88875
275 2.80688
280 3.21583
285 3.42087
290 3.64507
295 3.84974
300 4.41416
305 4.96307
310 5.66121
315 6.49503
320 8.46904
325 10.4104
330 13.8628
335 20.1915
340 35.018
345 1246.96
350 9999.9
355 9999.9
360 5147.89
365 643.028
370 107.713
375 35.3879
380 23.1679
385 19.1006
390 17.1614
395 18.1379
400 18.1081
405 16.3512
410 13.2221
415 11.6611
420 10.7227
425 10.1442
430 9.88033
435 8.82955
440 8.39957
445 8.44562
450 8.08438
455 8.07728
460 7.85198
465 7.81659
470 7.61595
475 7.0373
480 6.65092
485 6.31224
490 6.4963
495 5.95602
500 6.07783
505 5.71339
510 5.43923
515 5.17387
520 5.07268
525 4.75639
530 4.75753
535 5.14367
540 4.83547
545 4.85626
550 4.84567
555 4.96069
560 4.86054
565 4.89228
570 4.81289
575 4.71828
580 4.63154
585 4.4841
590 4.63418
595 4.90715
600 4.33269
Ex : 363
200 1.88294
205 2.00738
210 1.92206
215 1.97746
220 1.94413
225 2.0252
230 2.09702
235 2.21178
240 1.99656
245 2.34934
250 2.24166
255 2.31997
260 2.56626
265 2.47994
270 2.49688
275 2.8029
280 3.03951
285 3.02011
290 3.34079
295 3.80569
300 3.90003
305 4.10302
310 5.10086
315 6.10934
320 6.94077
325 8.62329
330 10.5376
335 14.7127
340 21.4826
345 36.3654
350 1218.27
355 9999.9
360 9999.9
365 5531.13
370 690.411
375 112.68
380 37.51
385 24.3614
390 19.9442
395 16.7177
400 16.8067
405 17.6336
410 17.1056
415 14.4587
420 11.7487
425 10.3256
430 9.8112
435 9.36523
440 8.88482
445 8.55598
450 7.94907
455 8.15411
460 8.35995
465 7.95097
470 7.41535
475 6.8734
480 6.68159
485 6.41208
490 6.27438
495 5.94232
500 5.84977
505 5.44769
510 5.52353
515 5.21973
520 5.08415
525 4.88823
530 4.73111
535 4.656
540 4.62103
545 4.51315
550 4.56765
555 4.6025
560 4.58891
565 4.43904
570 4.2823
575 4.20287
580 4.358
585 4.19574
590 4.14227
595 4.1341
600 3.00086
Ex : 368
200 1.74653
205 1.85466
210 1.81882
215 2.01245
220 1.85461
225 1.898
230 1.84305
235 1.99655
240 2.11576
245 2.16381
250 2.20931
255 2.28852
260 2.22205
265 2.43547
270 2.634
275 2.65017
280 2.79403
285 2.99124
290 3.2526
295 3.36744
300 3.90205
305 4.29564
310 4.41088
315 5.08169
320 5.88339
325 7.05357
330 8.39809
335 10.9718
340 15.1644
345 21.6698
350 37.2227
355 1048.2
360 9999.9
365 9999.9
370 6327.44
375 789.929
380 125.553
385 40.353
390 25.7071
395 20.1339
400 16.4732
405 16.4277
410 17.4796
415 16.7088
420 14.5365
425 11.8879
430 10.4102
435 9.79582
440 9.04279
445 9.00917
450 8.63402
455 8.47794
460 7.96481
465 7.65847
470 7.26628
475 6.73027
480 6.61587
485 6.57207
490 6.27467
495 5.74636
500 5.58596
505 5.37405
510 5.15958
515 4.81949
520 4.80752
525 4.46034
530 4.49084
535 4.42645
540 4.49504
545 4.26282
550 4.16268
555 4.18032
560 4.19927
565 4.26395
570 4.10394
575 3.94546
580 3.87156
585 4.16022
590 3.85826
595 3.74888
600 4.22612
Ex : 373
200 1.71865
205 1.91992
210 1.84719
215 1.75275
220 1.85558
225 1.81927
230 1.88765
235 1.96141
240 1.91926
245 1.94882
250 1.97129
255 2.1906
260 2.15091
265 2.41809
270 2.49425
275 2.53892
280 2.80348
285 2.93202
290 3.14511
295 3.27534
300 3.46123
305 3.86214
310 4.12249
315 4.76615
320 5.1727
325 6.1628
330 7.37505
335 9.10509
340 11.7472
345 15.2841
350 22.4171
355 37.8927
360 1317.83
365 9999.9
370 9999.9
375 6394.98
380 794.768
385 126.71
390 41.0708
395 25.6231
400 20.379
405 16.3337
410 15.6831
415 16.5819
420 16.3857
425 15.0633
430 12.9072
435 10.884
440 9.92973
445 9.49009
450 9.05428
455 8.51885
460 8.20531
465 7.91676
470 7.72347
475 6.94187
480 6.79816
485 6.35396
490 6.11732
495 5.89362
500 5.34928
505 5.23622
510 5.10244
515 4.81054
520 4.74874
525 4.70522
530 4.38668
535 4.31921
540 4.07958
545 4.13481
550 4.27793
555 4.06837
560 4.04165
565 4.07044
570 4.1056
575 3.92539
580 3.63376
585 3.84554
590 3.80739
595 3.74011
600 3.91752
Ex : 378
200 1.84261
205 1.77503
210 1.78886
215 1.89752
220 2.01133
225 1.87009
230 1.81979
235 2.04873
240 1.97981
245 2.0334
250 2.11214
255 2.12979
260 2.29924
265 2.31582
270 2.42654
275 2.58989
280 2.61683
285 2.65223
290 3.00515
295 3.13225
300 3.284
305 3.57175
310 3.69429
315 4.25012
320 4.52614
325 5.40265
330 6.4458
335 7.4015
340 9.34593
345 12.0873
350 15.6673
355 23.1833
360 39.7121
365 1282.45
370 9999.9
375 9999.9
380 6631.96
385 826.126
390 131.814
395 42.0786
400 25.9466
405 20.8949
410 16.3462
415 15.1715
420 16.0171
425 15.9374
430 15.2253
435 12.8192
440 10.4225
445 9.8161
450 9.43173
455 8.86971
460 8.45982
465 8.39171
470 7.6688
475 7.21768
480 6.61894
485 6.25008
490 5.95678
495 5.83361
500 5.62664
505 5.03515
510 4.9854
515 5.17888
520 4.86086
525 4.31779
530 4.5287
535 4.31759
540 4.28566
545 4.13883
550 4.05631
555 3.79475
560 3.84679
565 3.70232
570 3.82548
575 3.64012
580 3.60956
585 3.52876
590 3.39692
595 3.50158
600 2.77917
Ex : 383
200 1.66965
205 1.63469
210 1.74014
215 1.80752
220 1.82401
225 1.82551
230 1.9593
235 1.95692
240 1.92831
245 1.92482
250 2.05113
255 1.97055
260 2.00119
265 2.20053
270 2.4366
275 2.32149
280 2.50968
285 2.59136
290 2.79276
295 3.01877
300 3.17853
305 3.42
310 3.66611
315 3.89655
320 4.33062
325 5.07441
330 5.87199
335 6.83433
340 7.70569
345 9.68082
350 12.0328
355 16.1844
360 23.6153
365 41.2795
370 1245.34
375 9999.9
380 9999.9
385 7129.59
390 887.99
395 140.373
400 42.6837
405 26.3981
410 20.0238
415 16.4916
420 14.6666
425 14.8576
430 15.3152
435 15.1959
440 13.1532
445 11.0446
450 9.81615
455 9.04835
460 8.89316
465 8.53246
470 7.99711
475 7.35543
480 6.82858
485 6.57129
490 6.17926
495 5.62279
500 5.35666
505 5.23171
510 4.81592
515 4.74784
520 4.66723
525 4.57878
530 4.21873
535 4.05797
540 3.91741
545 4.06387
550 3.8586
555 3.72451
560 3.68807
565 3.46633
570 3.44409
575 3.40622
580 3.34296
585 3.24202
590 3.28716
595 2.91619
600 3.93092
Ex : 388
200 1.88854
205 1.86281
210 1.82443
215 1.80649
220 1.91953
225 2.10986
230 1.87523
235 1.94442
240 1.886
245 1.96428
250 2.1183
255 2.02578
260 2.1392
265 2.17934
270 2.23219
275 2.41846
280 2.45401
285 2.54308
290 2.73256
295 2.89458
300 3.08335
305 3.30159
310 3.52144
315 3.84956
320 4.21513
325 4.45332
330 5.13878
335 5.74232
340 6.79364
345 8.05766
350 9.88284
355 12.5416
360 17.2383
365 24.4775
370 41.7438
375 1333.94
380 9999.9
385 9999.9
390 7285
395 902.852
400 141.632
405 42.788
410 26.408
415 20.5777
420 15.94
425 14.2217
430 14.3654
435 15.3548
440 14.8112
445 13.9768
450 11.455
455 9.84814
460 9.34114
465 8.84124
470 8.29037
475 7.52011
480 6.94638
485 6.40892
490 6.22361
495 5.99212
500 5.66843
505 5.31654
510 4.91309
515 4.65236
520 4.46517
525 4.50549
530 4.48939
535 4.1129
540 4.10949
545 3.95833
550 3.78168
555 3.58411
560 3.60889
565 3.64881
570 3.27806
575 3.48249
580 3.18192
585 3.18323
590 3.23686
595 2.91782
600 3.29184
Ex : 393
200 1.75254
205 1.74479
210 1.73575
215 1.70023
220 2.0298
225 1.84706
230 1.9804
235 1.81844
240 1.98021
245 1.8885
250 2.11531
255 2.06691
260 2.17318
265 2.20121
270 2.29744
275 2.46318
280 2.54883
285 2.5888
290 2.8096
295 2.89002
300 3.02404
305 3.11688
310 3.44053
315 3.73063
320 4.06103
325 4.3857
330 4.6483
335 5.53608
340 6.11169
345 6.85907
350 8.42404
355 10.0453
360 12.857
365 16.9429
370 24.7907
375 42.6446
380 1253.44
385 9999.9
390 9999.9
395 7564.72
400 938.446
405 146.024
410 43.5439
415 26.3014
420 20.0754
425 15.5537
430 13.4608
435 13.668
440 14.5993
445 14.8442
450 13.9498
455 11.6783
460 9.93477
465 9.16095
470 8.43898
475 7.67319
480 7.61688
485 6.65462
490 6.4749
495 6.10723
500 5.53268
505 5.24813
510 5.02225
515 4.66361
520 4.54633
525 4.25787
530 4.1443
535 4.15047
540 4.26007
545 4.08514
550 3.75938
555 3.67112
560 3.50504
565 3.30913
570 3.33723
575 3.2729
580 3.1623
585 3.00918
590 2.95243
595 2.92864
600 4.13008
Ex : 398
200 1.77713
205 1.64827
210 1.82997
215 1.76869
220 1.88182
225 1.87621
230 1.93395
235 2.04795
240 2.07383
245 2.14872
250 1.98985
255 2.09581
260 2.15594
265 2.1817
270 2.38309
275 2.45327
280 2.38974
285 2.53404
290 2.58876
295 2.83452
300 2.96573
305 3.21388
310 3.32945
315 3.50816
320 4.0127
325 4.14627
330 4.53039
335 5.1644
340 5.65611
345 6.43271
350 7.28983
355 8.11653
360 10.3975
365 13.217
370 17.7384
375 25.5382
380 43.4813
385 1343.86
390 9999.9
395 9999.9
400 7678.92
405 950.546
410 148.237
415 43.8419
420 26.3154
425 20.1984
430 15.6139
435 13.8329
440 13.098
445 14.5254
450 14.4846
455 13.8547
460 12.2591
465 10.5014
470 9.22382
475 8.14801
480 7.46826
485 7.31675
490 6.48615
495 6.13777
500 5.7869
505 5.61447
510 5.23881
515 5.05343
520 4.70085
525 4.55174
530 4.32943
535 4.34933
540 4.01282
545 3.90597
550 3.95904
555 3.67224
560 3.6179
565 3.50927
570 3.18425
575 3.24258
580 3.09331
585 3.14131
590 2.89588
595 2.93677
600 3.18534
Ex : 403
200 1.80949
205 1.76308
210 1.87351
215 1.76512
220 1.79945
225 1.81002
230 1.85766
235 1.94044
240 1.99854
245 1.97628
250 2.02183
255 2.05045
260 2.1588
265 2.2714
270 2.32361
275 2.33508
280 2.36301
285 2.52652
290 2.63583
295 2.76725
300 2.7652
305 2.87742
310 3.0985
315 3.45519
320 3.60283
325 4.05128
330 4.36815
335 4.66474
340 5.16272
345 5.57097
350 6.53413
355 7.70855
360 8.84227
365 10.674
370 13.476
375 18.2442
380 26.3319
385 46.2227
390 1488.16
395 9999.9
400 9999.9
405 7849.01
410 971.334
415 151.116
420 43.8219
425 26.2582
430 20.4773
435 15.807
440 13.7494
445 13.5971
450 14.2279
455 14.1916
460 13.8902
465 13.0009
470 10.3953
475 8.81234
480 7.74009
485 7.21665
490 6.84451
495 6.4002
500 5.85802
505 5.62054
510 5.2077
515 4.93964
520 4.66218
525 4.3036
530 4.31901
535 4.28033
540 3.98888
545 3.87472
550 3.78867
555 3.87031
560 3.58967
565 3.4894
570 3.41027
575 3.29078
580 3.30431
585 2.96023
590 3.02203
595 2.69525
600 1.53376
Ex : 408
200 1.69265
205 1.72038
210 1.63318
215 1.75032
220 1.73841
225 1.80635
230 1.87496
235 1.84998
240 1.82094
245 1.90523
250 1.81774
255 2.07041
260 2.0694
265 2.04124
270 2.10267
275 2.18405
280 2.46065
285 2.39838
290 2.65848
295 2.54881
300 3.00255
305 2.65718
310 3.02934
315 3.20831
320 3.50861
325 3.75089
330 4.10861
335 4.3683
340 4.7271
345 5.32087
350 5.8031
355 6.84391
360 7.5328
365 8.82786
370 10.9796
375 13.6979
380 18.6781
385 27.4892
390 49.1029
395 1471.95
400 9999.9
405 9999.9
410 7598.82
415 941.841
420 146.31
425 42.967
430 25.6929
435 19.6944
440 15.2747
445 13.6868
450 12.7678
455 13.5285
460 14.2768
465 13.9224
470 12.7594
475 10.066
480 8.6053
485 7.78664
490 7.09341
495 6.5434
500 6.09236
505 5.70122
510 5.46831
515 5.03094
520 4.96149
525 4.73773
530 4.44428
535 4.16706
540 4.14232
545 3.90916
550 3.88324
555 3.79569
560 3.67715
565 3.41858
570 3.12773
575 3.17209
580 3.08721
585 2.99388
590 2.85775
595 2.77787
600 2.20668
Ex : 413
200 1.63104
205 1.63235
210 1.64613
215 1.6188
220 1.75937
225 1.76389
230 1.77042
235 1.89557
240 2.01824
245 1.91191
250 1.87095
255 2.12848
260 2.06869
265 2.16943
270 2.16305
275 2.21703
280 2.1831
285 2.33465
290 2.41857
295 2.52696
300 2.71411
305 2.86576
310 2.88315
315 3.26277
320 3.34414
325 3.60344
330 3.73462
335 3.97818
340 4.60553
345 5.01922
350 5.43163
355 5.98226
360 6.73056
365 7.95165
370 9.41022
375 11.3055
380 14.0796
385 19.3579
390 29.0727
395 49.8523
400 1674.57
405 9999.9
410 9999.9
415 7392.78
420 914.027
425 143.162
430 42.3958
435 25.8415
440 19.9658
445 15.7692
450 13.7424
455 12.922
460 13.3431
465 14.0065
470 13.4478
475 12.3504
480 10.3169
485 8.73549
490 7.30969
495 6.78001
500 6.23611
505 5.89178
510 5.58324
515 5.1314
520 4.85827
525 4.55856
530 4.42027
535 4.25419
540 4.02302
545 4.14744
550 3.96352
555 3.76426
560 3.6271
565 3.43807
570 3.2994
575 3.18919
580 2.91471
585 2.94482
590 2.72409
595 2.7297
600 2.02227
Ex : 418
200 1.73857
205 1.64258
210 1.71957
215 1.65266
220 1.72335
225 1.6681
230 1.6282
235 1.8616
240 1.81624
245 1.98627
250 1.89838
255 2.05394
260 2.01389
265 2.11394
270 2.23409
275 2.18174
280 2.16022
285 2.34104
290 2.40519
295 2.5316
300 2.60079
305 2.71086
310 2.85513
315 2.97234
320 3.23419
325 3.39781
330 3.71512
335 3.91959
340 4.32061
345 4.5653
350 5.09473
355 5.36359
360 5.81319
365 6.881
370 8.0415
375 9.24572
380 11.4921
385 14.6432
390 20.1375
395 29.4576
400 50.5761
405 1570.52
410 9999.9
415 9999.9
420 7768.84
425 958.232
430 148.223
435 43.2708
440 26.0794
445 20.0833
450 15.6168
455 13.7894
460 12.9204
465 12.8788
470 13.6857
475 12.8701
480 11.9552
485 10.5799
490 8.63656
495 7.18058
500 6.36716
505 6.27662
510 5.7334
515 5.37264
520 5.15471
525 4.92724
530 4.51166
535 4.49348
540 4.18015
545 3.99271
550 3.90645
555 3.91464
560 3.69599
565 3.52311
570 3.39593
575 3.28248
580 2.91853
585 2.99049
590 2.76643
595 2.75968
600 2.00566
Ex : 423
200 1.68801
205 1.66744
210 1.63006
215 1.77956
220 1.72553
225 1.74428
230 1.84066
235 1.82943
240 1.91596
245 1.91464
250 1.90815
255 1.89491
260 2.14515
265 2.06619
270 2.10883
275 2.26292
280 2.23791
285 2.28182
290 2.23242
295 2.59021
300 2.60145
305 2.68375
310 2.81537
315 3.01953
320 3.09182
325 3.30907
330 3.65473
335 3.9168
340 3.94933
345 4.42771
350 4.82831
355 5.35021
360 5.5695
365 6.2765
370 7.39544
375 8.41158
380 10.2608
385 12.4826
390 15.8668
395 21.5404
400 31.7575
405 54.4573
410 1747.16
415 9999.9
420 9999.9
425 7702.52
430 956.323
435 150.467
440 44.7207
445 27.56
450 21.1424
455 16.3035
460 14.3738
465 13.6678
470 12.7412
475 12.8104
480 12.6182
485 11.4621
490 10.3612
495 8.84679
500 7.40129
505 6.41673
510 5.94887
515 5.52301
520 5.21671
525 4.91374
530 4.60298
535 4.69137
540 4.34342
545 4.14581
550 4.12618
555 3.86177
560 3.6466
565 3.54514
570 3.39253
575 3.26188
580 3.10292
585 2.81216
590 2.87466
595 2.67755
600 3.23977
Ex : 428
200 1.62926
205 1.80192
210 1.79753
215 1.67704
220 1.75957
225 1.75268
230 1.7027
235 1.71007
240 1.80947
245 1.97715
250 1.83034
255 1.82819
260 1.83
265 2.10961
270 2.08679
275 2.324
280 2.25308
285 2.20129
290 2.37882
295 2.58539
300 2.65764
305 2.58549
310 2.65172
315 2.7238
320 3.11355
325 3.26452
330 3.50654
335 3.7862
340 3.96044
345 4.23342
350 4.58591
355 5.01148
360 5.35713
365 5.89199
370 6.93666
375 7.72755
380 8.51095
385 10.5302
390 13.0502
395 16.9683
400 22.8035
405 32.3781
410 57.3801
415 1919.38
420 9999.9
425 9999.9
430 7927.92
435 982.165
440 154.466
445 46.7633
450 28.6397
455 22.2294
460 17.5212
465 15.332
470 13.3795
475 12.1727
480 12.3446
485 12.4336
490 11.4516
495 10.59
500 9.14498
505 7.22238
510 6.31056
515 5.8954
520 5.44081
525 5.33232
530 5.01276
535 4.61293
540 4.60967
545 4.289
550 4.03092
555 3.98132
560 3.88102
565 3.64635
570 3.41335
575 3.36331
580 3.18123
585 3.09209
590 2.98749
595 2.83543
600 3.40777
Ex : 433
200 1.78721
205 1.76406
210 1.6808
215 1.85668
220 1.78818
225 1.71663
230 1.83635
235 1.71727
240 1.8703
245 1.90456
250 1.90159
255 1.96116
260 1.971
265 1.92775
270 2.24552
275 2.26315
280 2.28487
285 2.22546
290 2.33807
295 2.46034
300 2.45197
305 2.5938
310 2.70781
315 2.75409
320 3.0883
325 3.09931
330 3.31308
335 3.63751
340 3.87265
345 4.12449
350 4.40949
355 4.77231
360 5.35979
365 5.53812
370 6.21939
375 6.89899
380 7.95621
385 9.21068
390 11.0787
395 13.5577
400 17.4123
405 23.4977
410 34.4892
415 60.0376
420 2107.01
425 9999.9
430 9999.9
435 7712.91
440 956.686
445 153.725
450 47.6514
455 29.291
460 22.706
465 17.9122
470 14.9747
475 12.9054
480 11.8021
485 11.6044
490 11.9407
495 11.1027
500 10.2124
505 9.14033
510 7.60511
515 6.41628
520 5.742
525 5.55724
530 5.13527
535 4.88344
540 4.47657
545 4.37476
550 4.48936
555 4.00089
560 3.63321
565 3.62966
570 3.33588
575 3.32906
580 3.08368
585 2.91647
590 2.92141
595 2.71299
600 2.48253
Ex : 438
200 1.64576
205 1.62613
210 1.72404
215 1.64084
220 1.70693
225 1.6822
230 1.8522
235 1.82058
240 1.82657
245 1.75168
250 1.81627
255 1.77522
260 1.75888
265 2.0379
270 2.0496
275 2.28858
280 2.36984
285 2.2877
290 2.33609
295 2.35383
300 2.45359
305 2.49112
310 2.58118
315 2.77244
320 2.90593
325 3.07113
330 3.32891
335 3.33198
340 3.73342
345 3.99983
350 4.16537
355 4.67627
360 4.70534
365 5.17318
370 5.7209
375 6.4603
380 7.07525
385 8.17256
390 9.15222
395 11.2475
400 14.0089
405 18.0179
410 23.6195
415 34.5148
420 58.9635
425 2008.4
430 9999.9
435 9999.9
440 7864.49
445 976.418
450 156.579
455 47.8806
460 30.2635
465 23.6495
470 17.5039
475 14.1313
480 12.8448
485 11.768
490 11.4896
495 11.45
500 10.7635
505 9.90222
510 8.81661
515 7.78312
520 6.44029
525 5.71756
530 5.42637
535 5.05586
540 4.56715
545 4.21585
550 4.22014
555 4.07322
560 3.81212
565 3.64287
570 3.43602
575 3.30849
580 3.1962
585 2.88633
590 2.98837
595 2.80405
600 2.51781
Ex : 443
200 1.83034
205 1.64383
210 1.75725
215 1.70284
220 1.65404
225 1.82305
230 1.80604
235 1.77883
240 1.70846
245 1.84335
250 1.77471
255 1.92164
260 2.06874
265 2.09079
270 2.10844
275 2.06772
280 2.27283
285 2.2468
290 2.39937
295 2.46294
300 2.50649
305 2.62401
310 2.68678
315 2.72539
320 2.97176
325 2.98674
330 3.11561
335 3.25466
340 3.35391
345 3.87802
350 4.21821
355 4.59365
360 4.89658
365 5.06335
370 5.59447
375 6.06122
380 6.67474
385 7.19776
390 8.43111
395 9.93594
400 11.7588
405 14.3033
410 18.2965
415 24.6305
420 35.3086
425 59.9148
430 2198.92
435 9999.9
440 9999.9
445 7925.08
450 984.347
455 158.53
460 49.7076
465 31.5872
470 23.3939
475 17.0674
480 14.1503
485 12.9616
490 12.3071
495 10.9327
500 11.0954
505 10.8712
510 9.75066
515 8.87849
520 7.83031
525 6.45501
530 5.57265
535 5.21491
540 5.00415
545 4.73897
550 4.53887
555 4.21437
560 4.16152
565 3.81825
570 3.51298
575 3.39646
580 3.21753
585 3.07137
590 3.08935
595 2.79683
600 2.69024
Ex : 448
200 1.64334
205 1.62671
210 1.7427
215 1.65016
220 1.75947
225 1.77176
230 1.81318
235 1.78457
240 1.86483
245 1.77014
250 1.91896
255 1.93723
260 1.9088
265 2.02033
270 1.99886
275 2.15355
280 2.12609
285 2.18502
290 2.5058
295 2.4845
300 2.38855
305 2.45486
310 2.45184
315 2.77115
320 2.9789
325 2.90375
330 3.07988
335 3.50906
340 3.5275
345 3.83131
350 4.06705
355 4.27074
360 4.67854
365 4.99689
370 5.2363
375 5.70906
380 6.29389
385 6.9028
390 7.97982
395 8.73465
400 10.2883
405 12.0593
410 14.7342
415 19.2218
420 25.4403
425 35.8963
430 63.3827
435 2307.86
440 9999.9
445 9999.9
450 8013.85
455 996.309
460 163.964
465 53.1726
470 31.6952
475 22.9236
480 17.5528
485 14.1847
490 12.9946
495 12.1535
500 10.8615
505 10.5883
510 10.5382
515 9.62251
520 9.03358
525 7.96844
530 6.60921
535 5.58907
540 5.22449
545 5.06297
550 4.61013
555 4.41236
560 4.35258
565 3.99455
570 3.6416
575 3.43841
580 3.54953
585 3.33674
590 3.05807
595 2.9747
600 2.24685
Ex : 453
200 1.76325
205 1.83179
210 1.64896
215 1.71233
220 1.69993
225 1.81472
230 1.76572
235 1.80582
240 1.81095
245 1.90456
250 1.92385
255 1.81746
260 1.92357
265 1.97022
270 1.95741
275 2.04711
280 2.14116
285 2.1688
290 2.36
295 2.54093
300 2.54483
305 2.71049
310 2.73182
315 2.62215
320 2.76039
325 3.0078
330 3.10234
335 3.29493
340 3.41412
345 3.6105
350 3.78393
355 3.88073
360 4.38467
365 4.68202
370 5.06681
375 5.42698
380 5.73791
385 6.30365
390 7.24208
395 7.75949
400 8.93231
405 10.3178
410 12.1441
415 14.7053
420 18.2334
425 24.8039
430 35.8094
435 60.1253
440 2360.41
445 9999.9
450 9999.9
455 7503.75
460 938.179
465 157.84
470 50.1348
475 29.3204
480 21.3951
485 15.7713
490 13.1932
495 12.2939
500 11.0255
505 10.422
510 10.2497
515 9.72463
520 9.28985
525 8.60254
530 8.03962
535 6.87075
540 5.73201
545 5.03782
550 4.82205
555 4.54461
560 4.17792
565 4.05849
570 3.85667
575 3.65575
580 3.35634
585 3.23446
590 3.09173
595 2.8722
600 2.9755
Ex : 458
200 1.58524
205 1.78823
210 1.70159
215 1.71205
220 1.83483
225 1.81739
230 1.73664
235 1.92332
240 1.7228
245 1.79171
250 1.94959
255 2.01441
260 1.98483
265 2.06533
270 2.01545
275 2.18851
280 2.22636
285 2.24155
290 2.30518
295 2.45228
300 2.49726
305 2.48742
310 2.72926
315 3.04104
320 2.74106
325 2.87604
330 3.22377
335 3.21722
340 3.30451
345 3.50626
350 3.86052
355 3.92465
360 4.24461
365 4.58086
370 5.03191
375 5.19913
380 5.51918
385 6.09829
390 6.59554
395 7.25518
400 8.26585
405 9.14047
410 10.437
415 12.8967
420 14.8552
425 18.8746
430 25.3346
435 36.4238
440 63.6479
445 2578.28
450 9999.9
455 9999.9
460 8056.79
465 1008.34
470 164.626
475 49.186
480 29.5785
485 21.8335
490 16.1912
495 13.5236
500 12.135
505 11.5965
510 10.7174
515 9.9682
520 9.75362
525 9.50162
530 8.22455
535 7.8202
540 7.10985
545 6.27629
550 5.18986
555 4.97328
560 4.60597
565 4.26903
570 4.21013
575 3.86174
580 3.69025
585 3.55649
590 3.23181
595 3.06841
600 2.86948
Ex : 463
200 1.78476
205 1.78507
210 1.88098
215 1.9341
220 1.96168
225 1.9519
230 1.99387
235 1.94384
240 1.88407
245 1.93057
250 1.94188
255 1.94249
260 2.15227
265 2.13709
270 2.06127
275 2.02993
280 2.20549
285 2.30387
290 2.33839
295 2.31625
300 2.65199
305 2.78718
310 2.81486
315 2.86105
320 2.90302
325 2.96499
330 3.18146
335 3.10013
340 3.45597
345 3.50505
350 3.71102
355 3.85236
360 4.22208
365 4.29964
370 4.8093
375 5.26223
380 5.61473
385 5.94108
390 6.2279
395 7.02954
400 7.57364
405 8.3713
410 9.65059
415 11.0195
420 12.1987
425 15.0821
430 18.8028
435 24.9974
440 36.2939
445 66.0059
450 2530.99
455 9999.9
460 9999.9
465 8060.58
470 1006.37
475 160.746
480 48.6402
485 28.9043
490 21.4835
495 15.6402
500 13.2109
505 11.8364
510 11.2547
515 10.7663
520 9.82606
525 9.37597
530 9.33753
535 8.46817
540 7.56585
545 7.04651
550 5.98585
555 5.23918
560 4.78298
565 4.32909
570 4.27631
575 4.06968
580 3.77438
585 3.32388
590 3.31672
595 3.1432
600 2.80459
Ex : 468
200 1.75531
205 1.8668
210 1.89366
215 1.89588
220 1.85225
225 1.98869
230 2.11676
235 1.96626
240 1.90511
245 1.95888
250 2.00702
255 1.95889
260 1.99771
265 2.11052
270 2.10794
275 2.20177
280 2.13224
285 2.34589
290 2.13916
295 2.26276
300 2.51607
305 2.53958
310 2.72518
315 2.84261
320 2.91972
325 3.04272
330 2.91607
335 3.05976
340 3.34995
345 3.54219
350 3.64178
355 3.8725
360 3.99401
365 4.201
370 4.52464
375 4.91969
380 4.94688
385 5.53853
390 6.08757
395 6.38546
400 6.8583
405 7.56096
410 8.37137
415 9.20164
420 10.504
425 12.1484
430 14.7195
435 18.5385
440 24.98
445 37.5222
450 64.1228
455 2759.78
460 9999.9
465 9999.9
470 7699
475 953.511
480 151.92
485 45.251
490 27.6361
495 19.99
500 14.9218
505 12.504
510 11.1964
515 10.8536
520 10.1137
525 9.13472
530 8.68534
535 8.89638
540 8.15547
545 7.16142
550 6.6135
555 6.15317
560 5.35203
565 4.65163
570 4.35222
575 3.94115
580 3.94275
585 3.59149
590 3.384
595 3.26221
600 2.82741
Ex : 473
200 1.92964
205 1.83617
210 1.81519
215 1.907
220 1.9842
225 1.90675
230 2.32206
235 1.89962
240 1.84598
245 2.04352
250 1.92715
255 1.98315
260 2.01509
265 2.03305
270 2.20869
275 2.09098
280 2.18865
285 2.10542
290 2.18927
295 2.28555
300 2.36951
305 2.44686
310 2.44452
315 2.76583
320 2.89493
325 2.92314
330 3.23303
335 2.90813
340 3.07609
345 3.40901
350 3.51202
355 3.73791
360 3.997
365 4.05026
370 4.41695
375 4.60986
380 4.99894
385 5.33961
390 5.81695
395 5.99159
400 6.74211
405 7.2745
410 7.69036
415 8.34605
420 9.16776
425 10.6479
430 12.2635
435 14.6967
440 18.783
445 25.769
450 38.1838
455 66.1038
460 2934.03
465 9999.9
470 9999.9
475 7592.78
480 941.001
485 149.288
490 44.4727
495 26.5444
500 19.6071
505 14.6679
510 12.1331
515 10.8922
520 10.3828
525 9.86767
530 9.07488
535 8.7591
540 8.50772
545 7.9391
550 7.11559
555 6.46454
560 6.03591
565 5.25739
570 4.46687
575 4.24511
580 3.7916
585 3.83577
590 3.67638
595 3.38388
600 3.49616
Ex : 478
200 1.80325
205 1.69473
210 1.72545
215 1.86418
220 1.82625
225 1.84918
230 2.25661
235 2.74212
240 2.15227
245 2.08254
250 2.01323
255 2.12618
260 2.12804
265 2.26116
270 2.19511
275 2.10936
280 2.38736
285 2.13807
290 2.24481
295 2.35875
300 2.57898
305 2.529
310 2.74396
315 2.73907
320 2.93654
325 2.94514
330 3.02841
335 3.40019
340 3.30754
345 3.41578
350 3.78245
355 3.7609
360 3.90973
365 4.17776
370 4.33955
375 4.57991
380 4.96661
385 5.4772
390 5.90929
395 6.41109
400 6.43111
405 7.34028
410 7.81094
415 8.57747
420 9.31841
425 10.054
430 11.3789
435 13.5028
440 16.1054
445 21.5486
450 29.1995
455 43.5497
460 79.5259
465 3339.32
470 9999.9
475 9999.9
480 8363.88
485 1034.44
490 165.411
495 48.8136
500 29.0841
505 20.7449
510 15.3857
515 12.5208
520 11.5051
525 10.7929
530 10.394
535 9.51077
540 8.99755
545 8.35385
550 7.97609
555 7.39168
560 6.59363
565 6.24027
570 5.45519
575 4.6385
580 4.13188
585 3.8322
590 3.53959
595 3.45593
600 3.41308
Ex : 483
200 1.87612
205 1.73466
210 1.83872
215 1.77194
220 1.89412
225 1.9538
230 2.10655
235 2.82762
240 2.38831
245 2.01666
250 2.13633
255 2.0669
260 2.01662
265 2.08687
270 2.09395
275 2.16515
280 2.24436
285 2.17124
290 2.34317
295 2.36424
300 2.34906
305 2.4489
310 2.4703
315 2.50066
320 2.74677
325 3.07744
330 3.10627
335 3.04285
340 3.4812
345 3.49211
350 3.49683
355 3.6667
360 3.86595
365 4.08631
370 4.20796
375 4.72269
380 4.8835
385 5.00321
390 5.61717
395 6.06248
400 6.69532
405 6.89977
410 7.5286
415 7.82882
420 8.6266
425 9.2896
430 10.2124
435 12.0907
440 13.7825
445 17.4018
450 22.3252
455 30.9802
460 47.0892
465 83.318
470 2706.12
475 9999.9
480 9999.9
485 8863.7
490 1093.45
495 170.371
500 49.4784
505 29.4102
510 21.2567
515 15.5912
520 12.8321
525 11.7374
530 11.5903
535 10.5366
540 9.68599
545 8.87216
550 8.31228
555 8.1683
560 7.31047
565 6.27903
570 5.99692
575 5.57599
580 4.75213
585 4.2486
590 3.82852
595 3.891
600 3.72912
Ex : 488
200 1.85735
205 1.87098
210 1.86236
215 1.83587
220 2.00409
225 1.99726
230 1.96431
235 2.81003
240 3.16834
245 2.23456
250 2.14395
255 2.17629
260 2.12004
265 2.07128
270 2.39235
275 2.28523
280 2.25353
285 2.33804
290 2.34893
295 2.39143
300 2.43595
305 2.49961
310 2.57229
315 2.77193
320 2.79874
325 3.00202
330 3.24295
335 3.25311
340 3.44072
345 3.59088
350 3.6886
355 3.7167
360 3.85609
365 4.08125
370 4.10098
375 4.51895
380 4.69587
385 5.13876
390 5.47355
395 5.98603
400 6.31462
405 6.80443
410 7.21805
415 7.57374
420 8.31114
425 8.69036
430 9.97034
435 10.8711
440 12.5467
445 15.0258
450 18.5987
455 24.002
460 33.6604
465 52.7657
470 84.4655
475 3258.85
480 9999.9
485 9999.9
490 8816.32
495 1088.53
500 169.851
505 49.5284
510 29.7734
515 21.4927
520 16.2835
525 13.198
530 12.1918
535 11.2871
540 10.7909
545 9.66171
550 8.90076
555 8.0387
560 7.76845
565 7.56282
570 6.39988
575 5.86809
580 5.39201
585 4.57509
590 4.38877
595 4.00867
600 4.15484
Ex : 493
200 1.76133
205 1.89591
210 1.89019
215 1.87341
220 1.97897
225 1.98991
230 2.09361
235 2.1357
240 3.24444
245 2.73647
250 2.17398
255 2.03966
260 2.18174
265 2.13192
270 2.0741
275 2.21696
280 2.18402
285 2.45682
290 2.31128
295 2.45157
300 2.48712
305 2.55091
310 2.60148
315 2.58278
320 2.60421
325 2.86813
330 3.26558
335 3.1559
340 3.41554
345 3.4254
350 3.43698
355 3.37657
360 3.79967
365 3.93764
370 4.02201
375 4.43619
380 4.68718
385 4.925
390 5.06967
395 5.74293
400 6.25511
405 6.34835
410 6.80385
415 7.47563
420 7.58479
425 8.25538
430 9.17095
435 9.82768
440 11.0125
445 12.8777
450 15.1815
455 18.9126
460 25.6934
465 36.01
470 49.9083
475 79.5451
480 3073.63
485 9999.9
490 9999.9
495 8817.14
500 1085.33
505 169.129
510 49.3301
515 29.499
520 21.3679
525 15.9985
530 13.0428
535 11.9369
540 11.4855
545 10.4106
550 9.59623
555 8.82466
560 7.8265
565 7.51159
570 6.89515
575 6.06746
580 5.39564
585 4.96918
590 4.42078
595 4.05817
600 2.77909
Ex : 498
200 1.82578
205 1.99941
210 2.09042
215 1.85355
220 1.96007
225 1.9074
230 2.02242
235 2.0094
240 2.85126
245 3.84666
250 2.37361
255 2.24836
260 2.17688
265 2.16529
270 2.14868
275 2.32212
280 2.27519
285 2.36206
290 2.42658
295 2.28708
300 2.57846
305 2.59888
310 2.60352
315 2.74598
320 2.77165
325 2.71294
330 2.88148
335 3.13984
340 3.42951
345 3.52074
350 3.71529
355 3.61359
360 3.69826
365 3.81972
370 4.24888
375 4.3725
380 4.56356
385 4.80652
390 5.23684
395 5.67052
400 6.01402
405 6.24667
410 6.56035
415 7.05612
420 7.42608
425 7.86658
430 8.56367
435 9.56075
440 10.3824
445 12.0604
450 13.9696
455 16.2429
460 20.6831
465 28.0497
470 35.892
475 49.4916
480 84.1144
485 3614.97
490 9999.9
495 9999.9
500 9075.09
505 1115.84
510 173.849
515 50.645
520 30.5144
525 21.6283
530 15.8629
535 13.3159
540 12.2131
545 11.61
550 10.7676
555 9.54224
560 8.82481
565 7.98155
570 7.17278
575 6.73849
580 6.12862
585 5.37164
590 4.91844
595 4.39629
600 4.8495
Ex : 503
200 1.96995
205 2.10195
210 2.11419
215 1.99904
220 1.99937
225 1.85838
230 2.09204
235 2.0716
240 2.29607
245 4.11071
250 3.23461
255 2.20953
260 2.19395
265 2.21126
270 2.21287
275 2.19189
280 2.31732
285 2.35456
290 2.44469
295 2.4261
300 2.37043
305 2.41598
310 2.63359
315 2.6849
320 2.63781
325 2.87124
330 2.88529
335 3.16613
340 3.257
345 3.52451
350 3.55347
355 3.58935
360 3.88223
365 3.99813
370 3.97564
375 4.56375
380 4.59402
385 4.89401
390 5.20161
395 5.56858
400 6.01959
405 6.35776
410 6.44759
415 6.7901
420 7.05577
425 7.88016
430 8.42073
435 8.95096
440 9.55834
445 10.7948
450 12.0619
455 14.4285
460 17.677
465 22.8978
470 27.929
475 35.3236
480 51.0154
485 85.0326
490 3352.67
495 9999.9
500 9999.9
505 9285.73
510 1144.81
515 177.285
520 51.3573
525 30.2366
530 22.0497
535 15.9904
540 13.1792
545 12.5276
550 11.4352
555 10.4288
560 9.53392
565 8.70494
570 7.90277
575 7.15161
580 6.18379
585 5.86584
590 5.05991
595 4.58699
600 4.08121
Ex : 508
200 1.99398
205 1.89227
210 2.0091
215 1.92341
220 2.05269
225 2.12657
230 2.1342
235 1.89747
240 1.96659
245 3.13506
250 5.03015
255 2.94742
260 2.30399
265 2.20984
270 2.25178
275 2.10339
280 2.15921
285 2.25896
290 2.30838
295 2.42172
300 2.46312
305 2.54684
310 2.60424
315 2.70903
320 2.69835
325 2.97361
330 3.12048
335 2.92947
340 3.22224
345 3.54853
350 3.44041
355 3.66956
360 3.77575
365 3.80794
370 3.96384
375 4.13732
380 4.45353
385 4.78564
390 4.96296
395 5.27832
400 5.54878
405 5.9674
410 6.76045
415 6.98317
420 7.1072
425 7.66831
430 8.40102
435 8.6579
440 9.42516
445 10.4118
450 11.8008
455 13.3594
460 15.7355
465 19.752
470 23.233
475 28.1667
480 37.4661
485 53.0918
490 89.7498
495 3763.49
500 9999.9
505 9999.9
510 9999.9
515 1229.2
520 188.311
525 53.8801
530 31.1816
535 22.5471
540 16.4363
545 13.6713
550 12.2682
555 11.2327
560 10.7691
565 9.89194
570 8.91739
575 7.56914
580 6.93846
585 6.20492
590 5.73007
595 5.17279
600 5.98097
Ex : 513
200 1.84567
205 1.85923
210 1.83182
215 1.9015
220 1.92474
225 1.84197
230 2.07926
235 2.08706
240 2.02138
245 2.28995
250 9.88349
255 7.91731
260 2.86173
265 2.23545
270 2.24933
275 2.25194
280 2.1721
285 2.29468
290 2.51832
295 2.28348
300 2.50401
305 2.594
310 2.61701
315 2.56584
320 2.63166
325 2.87637
330 3.00588
335 2.88265
340 3.00179
345 3.17399
350 3.59931
355 3.74564
360 3.99341
365 3.86614
370 4.06092
375 4.20727
380 4.04641
385 4.2923
390 5.00326
395 5.20623
400 5.79224
405 6.10234
410 6.10487
415 6.44968
420 6.74403
425 7.46699
430 7.6636
435 8.0269
440 8.76279
445 9.56591
450 10.3211
455 12.0826
460 13.841
465 16.5691
470 18.6924
475 21.3752
480 27.3631
485 35.8567
490 51.6275
495 84.2289
500 3323.44
505 9999.9
510 9999.9
515 9999.9
520 1231.45
525 187.095
530 52.7536
535 30.6517
540 22.2766
545 15.8622
550 13.4596
555 12.0606
560 11.2841
565 10.6403
570 9.41798
575 8.43075
580 7.44114
585 6.74564
590 5.8524
595 5.44118
600 4.67376
Ex : 518
200 2.03669
205 2.05986
210 1.85206
215 1.88289
220 2.05507
225 1.98479
230 2.16964
235 2.08034
240 2.14795
245 2.2037
250 8.93853
255 26.1683
260 7.3242
265 2.80214
270 2.35925
275 2.29067
280 2.31972
285 2.42403
290 2.36559
295 2.42665
300 2.35827
305 2.49486
310 2.69659
315 2.42037
320 2.52573
325 2.83923
330 2.71275
335 2.75955
340 3.14358
345 3.45574
350 3.26787
355 3.46748
360 3.69625
365 3.73628
370 3.94755
375 4.11557
380 4.15723
385 4.39144
390 4.84198
395 4.8954
400 5.31666
405 5.7866
410 5.99966
415 6.07906
420 6.61877
425 6.77366
430 7.34582
435 8.0799
440 8.48487
445 9.16391
450 9.73562
455 10.6121
460 11.9496
465 14.3822
470 15.5909
475 17.8052
480 21.442
485 27.9228
490 36.5334
495 49.7881
500 82.9168
505 3270.58
510 9999.9
515 9999.9
520 9999.9
525 1228.37
530 187.286
535 52.356
540 30.4787
545 21.9297
550 15.8183
555 13.4263
560 11.9569
565 11.3025
570 10.2479
575 9.38255
580 8.37395
585 7.34382
590 6.52143
595 5.77695
600 5.03581
Ex : 523
200 1.86602
205 1.98799
210 1.9231
215 1.85186
220 1.91949
225 2.11705
230 2.13616
235 2.07159
240 2.01443
245 2.09504
250 3.72602
255 39.2297
260 30.1428
265 5.68083
270 2.65037
275 2.26422
280 2.47448
285 2.28542
290 2.2998
295 2.46965
300 2.48301
305 2.53267
310 2.48225
315 2.80111
320 2.80047
325 2.88043
330 3.01152
335 2.89459
340 3.03871
345 2.96648
350 3.27254
355 3.10204
360 3.68608
365 3.70103
370 3.9604
375 3.9848
380 4.05365
385 4.22861
390 4.56927
395 4.83413
400 5.20462
405 5.33828
410 5.73966
415 5.93617
420 6.31709
425 6.62312
430 7.3011
435 7.51732
440 7.891
445 8.50396
450 9.167
455 10.308
460 11.7407
465 13.5579
470 14.7336
475 15.5622
480 18.0216
485 21.3971
490 27.4932
495 35.6404
500 49.8419
505 81.697
510 3007.27
515 9999.9
520 9999.9
525 9999.9
530 1228.25
535 186.643
540 51.7203
545 30.2751
550 21.6007
555 15.9867
560 12.8014
565 11.7592
570 10.6886
575 9.97795
580 9.08135
585 7.95993
590 7.17259
595 6.15094
600 6.04238
Ex : 528
200 1.96065
205 1.90856
210 1.92563
215 1.90372
220 1.94826
225 2.15411
230 1.9588
235 1.97791
240 1.9323
245 1.99857
250 2.11507
255 23.2835
260 74.1432
265 17.9206
270 4.31379
275 2.38375
280 2.43639
285 2.3727
290 2.38271
295 2.42195
300 2.51115
305 2.819
310 2.69095
315 2.3531
320 2.63633
325 2.62005
330 2.84334
335 3.05875
340 3.11306
345 3.14889
350 3.08361
355 3.1713
360 3.28972
365 3.64448
370 3.86589
375 3.79276
380 3.88491
385 4.15429
390 4.33775
395 4.37444
400 4.81999
405 5.12706
410 5.41421
415 5.78433
420 5.83045
425 5.99532
430 6.6376
435 6.79848
440 7.64366
445 7.93069
450 8.43548
455 9.05633
460 10.8428
465 12.306
470 12.7774
475 13.4301
480 15.4207
485 17.6759
490 21.356
495 27.1624
500 34.8742
505 47.7788
510 78.7228
515 2797.46
520 9999.9
525 9999.9
530 9999.9
535 1229.43
540 184.479
545 51.0497
550 29.5088
555 20.8928
560 15.2311
565 12.118
570 11.245
575 10.5969
580 9.23555
585 8.35716
590 7.97897
595 6.77935
600 5.76564
Ex : 533
200 1.82483
205 1.9652
210 1.89237
215 1.97532
220 1.79037
225 2.02014
230 2.02384
235 2.17705
240 2.11602
245 2.11992
250 1.91645
255 5.27274
260 80.9722
265 60.7193
270 9.57771
275 3.35647
280 2.60973
285 2.50092
290 2.41333
295 2.45527
300 2.5902
305 2.55699
310 2.47354
315 2.65501
320 2.6915
325 2.69084
330 2.79133
335 2.73193
340 3.00456
345 3.29487
350 3.1886
355 3.15567
360 3.40393
365 3.47004
370 3.79442
375 3.70529
380 3.98968
385 4.21431
390 4.14788
395 4.38787
400 4.63338
405 4.87954
410 5.28796
415 5.50317
420 5.58138
425 6.09797
430 6.3755
435 6.7184
440 7.30392
445 7.99772
450 8.22903
455 8.79631
460 9.81591
465 11.062
470 11.8865
475 12.5946
480 13.3915
485 15.1088
490 17.6048
495 20.916
500 26.043
505 34.1666
510 48.2856
515 77.9043
520 2762.26
525 9999.9
530 9999.9
535 9999.9
540 1226.3
545 184.068
550 51.4722
555 28.8409
560 20.5714
565 15.0291
570 11.7583
575 11.0519
580 10.4502
585 9.42289
590 8.36942
595 7.61527
600 4.87893
Ex : 538
200 1.81066
205 2.00011
210 1.88181
215 1.95308
220 1.91814
225 1.9637
230 1.89655
235 1.95985
240 2.10676
245 2.04021
250 2.12974
255 2.09493
260 37.0137
265 125.245
270 31.0478
275 5.95428
280 2.95563
285 2.69339
290 2.47356
295 2.4769
300 2.49249
305 2.45309
310 2.4465
315 2.78762
320 2.65552
325 2.829
330 2.80532
335 2.97145
340 2.99562
345 3.00548
350 3.11899
355 3.1136
360 3.26841
365 3.46021
370 3.44463
375 3.50853
380 3.68417
385 4.23679
390 4.29008
395 4.74826
400 4.60757
405 4.86548
410 4.77248
415 5.22206
420 5.36315
425 5.87821
430 6.3061
435 6.47336
440 6.84169
445 7.62302
450 8.38038
455 8.7726
460 9.33789
465 10.4053
470 11.2767
475 11.2481
480 12.8256
485 13.9009
490 15.297
495 16.9448
500 20.3723
505 25.7089
510 33.7634
515 46.9183
520 74.986
525 2476.01
530 9999.9
535 9999.9
540 9999.9
545 1236.27
550 185.247
555 51.1132
560 28.9574
565 20.2903
570 14.2189
575 11.2631
580 10.4827
585 9.8635
590 9.10725
595 8.08909
600 8.7125
Ex : 543
200 1.78459
205 1.91774
210 1.98591
215 2.13549
220 1.90819
225 2.07501
230 2.02356
235 2.18165
240 2.08523
245 2.06968
250 2.21444
255 2.08201
260 6.41943
265 120.238
270 98.1075
275 14.4084
280 4.04301
285 2.67645
290 2.44963
295 2.65192
300 2.6323
305 2.81813
310 2.52764
315 2.63337
320 2.66234
325 2.85163
330 2.70908
335 2.81931
340 3.05151
345 3.24902
350 3.16709
355 3.25928
360 3.25496
365 3.43396
370 3.43261
375 3.46473
380 3.61177
385 4.12155
390 4.22681
395 4.30159
400 4.38171
405 4.33303
410 4.67674
415 5.08423
420 5.85411
425 5.71126
430 5.97304
435 6.53614
440 6.43169
445 7.21248
450 7.73228
455 8.388
460 8.82304
465 9.61758
470 10.304
475 10.172
480 11.3024
485 12.1941
490 13.3035
495 14.2884
500 16.376
505 20.6231
510 25.1444
515 32.5243
520 45.8219
525 70.8171
530 2209.47
535 9999.9
540 9999.9
545 9999.9
550 1242.23
555 185.24
560 50.1456
565 27.608
570 19.8507
575 13.6106
580 10.9783
585 9.50463
590 9.4002
595 9.20141
600 11.0554
Ex : 548
200 1.97239
205 1.85964
210 2.09011
215 1.94448
220 1.9035
225 1.88733
230 1.89464
235 1.80699
240 2.09078
245 2.20173
250 1.90812
255 2.05365
260 2.44422
265 49.7715
270 170.325
275 41.2602
280 6.79255
285 2.88092
290 2.59544
295 2.45416
300 2.63969
305 2.57961
310 2.74718
315 2.64694
320 2.86812
325 2.74276
330 2.77095
335 3.16349
340 3.06474
345 3.09438
350 3.16625
355 2.98636
360 3.11736
365 3.08135
370 3.39264
375 3.66825
380 3.375
385 3.95914
390 4.30068
395 4.38664
400 4.25563
405 4.90932
410 4.61124
415 4.65274
420 5.208
425 5.95016
430 5.73825
435 5.87057
440 6.34332
445 6.97619
450 7.24121
455 8.06372
460 8.77365
465 9.64555
470 9.2863
475 9.62679
480 10.4493
485 11.214
490 12.0939
495 13.2812
500 14.7467
505 16.6352
510 19.8417
515 25.4194
520 32.8204
525 45.0889
530 70.5522
535 2396.07
540 9999.9
545 9999.9
550 9999.9
555 1231.93
560 183.023
565 48.4051
570 26.7464
575 18.6354
580 12.7862
585 10.0545
590 9.57473
595 9.18771
600 10.1178
Ex : 553
200 1.91734
205 1.84028
210 2.02441
215 1.87142
220 1.89534
225 1.98613
230 1.878
235 2.03003
240 1.9681
245 2.12896
250 2.11169
255 2.21286
260 2.27811
265 7.28933
270 149.381
275 123.483
280 17.6398
285 4.26666
290 2.66276
295 2.81106
300 2.75074
305 2.55183
310 2.80853
315 2.69361
320 2.75899
325 3.06162
330 2.82848
335 2.85942
340 2.9769
345 3.12255
350 3.31232
355 3.06785
360 3.2305
365 3.23618
370 3.43423
375 3.42286
380 3.21086
385 3.65268
390 3.96991
395 4.2283
400 4.68785
405 4.53801
410 4.70964
415 4.67959
420 4.9154
425 5.45894
430 5.54485
435 5.93899
440 6.05931
445 6.69301
450 6.82081
455 7.40032
460 8.40199
465 9.17211
470 9.1755
475 9.26724
480 9.74614
485 10.1108
490 11.3984
495 11.9021
500 12.7505
505 13.8845
510 16.4045
515 19.0722
520 24.4284
525 32.1162
530 44.5913
535 68.4696
540 2080.94
545 9999.9
550 9999.9
555 9999.9
560 1240.78
565 182.635
570 47.9761
575 25.6221
580 17.6525
585 11.8769
590 9.99402
595 8.79022
600 7.55613
Ex : 558
200 1.91297
205 1.99073
210 1.813
215 2.09722
220 2.04833
225 1.94048
230 1.86559
235 1.90865
240 2.00223
245 2.00983
250 1.80775
255 2.0652
260 2.24632
265 2.52171
270 58.8516
275 220.44
280 54.0682
285 8.57048
290 3.27828
295 2.58153
300 2.71251
305 2.82953
310 2.95196
315 2.77305
320 2.60889
325 2.9897
330 2.92341
335 3.07927
340 3.14236
345 2.85984
350 3.01837
355 2.96037
360 3.06149
365 3.24524
370 3.24851
375 3.33008
380 3.52558
385 3.70161
390 3.73565
395 3.95797
400 4.27513
405 4.22844
410 4.61082
415 4.6696
420 4.53911
425 4.55443
430 5.37595
435 5.5846
440 5.7429
445 6.43983
450 6.71695
455 7.29155
460 8.12746
465 8.48513
470 8.67518
475 8.88929
480 9.14979
485 9.77209
490 10.4469
495 10.6118
500 11.2783
505 12.4385
510 14.2344
515 16.1763
520 19.1978
525 23.9426
530 31.1913
535 43.5319
540 66.3025
545 2052.67
550 9999.9
555 9999.9
560 9999.9
565 1242.44
570 181.485
575 46.4192
580 24.7446
585 17.0585
590 11.1371
595 9.08951
600 8.79655
Ex : 563
200 1.8739
205 1.84293
210 2.00091
215 2.08891
220 1.89414
225 1.96204
230 2.17236
235 1.94715
240 1.96658
245 2.21794
250 2.24252
255 2.07011
260 2.02407
265 2.29619
270 8.3368
275 187.507
280 155.548
285 21.9907
290 4.9633
295 2.74216
300 2.52109
305 2.71419
310 2.74875
315 2.67979
320 2.77551
325 2.76874
330 2.98052
335 3.01493
340 3.07423
345 3.3641
350 3.14177
355 3.19893
360 3.08944
365 3.14132
370 3.29702
375 3.18368
380 3.53511
385 3.72659
390 3.98692
395 3.69229
400 3.98491
405 4.16535
410 4.37705
415 4.47252
420 4.46267
425 4.50914
430 5.02213
435 5.30856
440 5.73008
445 6.25389
450 6.18852
455 6.90377
460 7.83001
465 8.24246
470 8.40584
475 8.54309
480 9.04898
485 9.13686
490 9.69381
495 9.97417
500 10.6056
505 11.5626
510 12.6447
515 13.9729
520 16.02
525 18.7821
530 23.6149
535 31.7293
540 42.3564
545 66.9451
550 2004.73
555 9999.9
560 9999.9
565 9999.9
570 1236.71
575 177.905
580 43.0952
585 21.9606
590 14.8544
595 10.4351
600 8.10205
Ex : 568
200 1.96668
205 1.90021
210 1.9955
215 1.92424
220 1.91525
225 2.13051
230 1.91727
235 2.02176
240 2.01541
245 1.83952
250 1.969
255 2.2469
260 2.06268
265 2.15043
270 2.15999
275 66.4542
280 268.447
285 72.9022
290 10.8651
295 3.71599
300 2.59527
305 2.56448
310 2.82664
315 2.62973
320 2.61882
325 2.75909
330 2.66226
335 3.00983
340 3.11972
345 2.92285
350 3.15182
355 2.99414
360 3.14683
365 3.23224
370 3.22789
375 3.21264
380 3.49168
385 3.35081
390 3.47789
395 3.69637
400 3.82918
405 4.08512
410 4.39345
415 4.49215
420 4.46462
425 4.54122
430 4.6995
435 4.79897
440 5.16408
445 5.73618
450 6.3075
455 6.32623
460 7.07552
465 8.0567
470 8.15869
475 7.9037
480 8.49093
485 8.41347
490 8.82371
495 9.17199
500 9.80616
505 10.7096
510 11.0503
515 12.0568
520 13.1899
525 15.1767
530 19.1441
535 22.5873
540 29.9041
545 40.512
550 62.0812
555 1475.19
560 9999.9
565 9999.9
570 9999.9
575 1247.64
580 175.097
585 40.6378
590 20.1152
595 14.3812
600 11.8138
Ex : 573
200 1.83195
205 1.86006
210 1.72196
215 1.87681
220 2.15472
225 1.81591
230 1.87745
235 1.82581
240 1.90256
245 2.11737
250 1.94383
255 1.88166
260 2.10962
265 2.14752
270 2.0668
275 8.28274
280 216.708
285 201.654
290 28.2308
295 5.71408
300 3.1043
305 2.75548
310 2.64254
315 2.5554
320 2.78493
325 2.79019
330 2.78553
335 2.92877
340 2.86591
345 3.13342
350 3.12926
355 2.86229
360 3.12534
365 2.97127
370 3.31321
375 3.22217
380 3.45799
385 3.38042
390 3.27313
395 3.58235
400 3.53167
405 3.94113
410 4.02554
415 4.2996
420 4.18485
425 4.08836
430 4.3682
435 4.45606
440 4.83905
445 5.56703
450 6.2105
455 6.20805
460 6.47603
465 7.53739
470 7.20627
475 7.19086
480 7.8595
485 7.91622
490 8.59622
495 8.61075
500 8.8075
505 9.8114
510 9.97104
515 10.3281
520 11.3443
525 12.7933
530 14.3047
535 17.51
540 22.3427
545 29.924
550 39.3191
555 59.5571
560 1288.82
565 9999.9
570 9999.9
575 9999.9
580 1240.71
585 171.875
590 39.3514
595 19.1022
600 15.7622
Ex : 578
200 1.86385
205 1.7223
210 1.67668
215 1.73849
220 1.72016
225 1.91066
230 1.83183
235 1.6406
240 1.80473
245 1.64866
250 1.65046
255 1.86467
260 1.70849
265 1.90354
270 1.9929
275 2.45976
280 76.4868
285 320.114
290 88.5198
295 12.5737
300 3.85499
305 2.52205
310 2.52821
315 2.62631
320 2.7055
325 2.46438
330 2.52891
335 2.58529
340 2.47585
345 2.60837
350 2.86999
355 2.84028
360 2.92758
365 2.93078
370 2.95644
375 3.09171
380 3.20769
385 2.95834
390 3.09151
395 3.50492
400 3.46588
405 3.63161
410 3.68637
415 3.8
420 3.62259
425 4.19324
430 4.44968
435 4.23856
440 4.77361
445 4.8371
450 5.44922
455 5.94808
460 6.69557
465 7.00739
470 6.89329
475 7.03631
480 7.23305
485 7.66545
490 7.83353
495 8.23413
500 8.17454
505 9.05296
510 9.21244
515 9.27369
520 10.186
525 10.8985
530 11.7875
535 14.102
540 16.9691
545 21.0323
550 27.499
555 38.2525
560 56.5801
565 1136.43
570 9999.9
575 9999.9
580 9999.9
585 1220.59
590 165.462
595 35.5184
600 15.8284
Ex : 583
200 1.64823
205 1.48348
210 1.54899
215 1.54791
220 1.86379
225 1.67389
230 1.83922
235 1.7939
240 2.03886
245 1.69463
250 1.77597
255 1.72966
260 1.81382
265 1.72307
270 1.92689
275 2.20851
280 9.38582
285 243.448
290 236.498
295 33.0916
300 5.98307
305 2.75619
310 2.26516
315 2.34613
320 2.52334
325 2.2775
330 2.20876
335 2.54741
340 2.25031
345 2.38965
350 2.50254
355 2.53521
360 2.59622
365 2.55635
370 2.75253
375 2.57572
380 3.10855
385 2.95671
390 3.24802
395 3.29551
400 3.26162
405 3.13672
410 3.58796
415 3.38424
420 3.68491
425 3.53652
430 3.93319
435 4.12749
440 4.17608
445 4.44593
450 4.379
455 5.12563
460 6.22742
465 6.63096
470 6.21149
475 6.25735
480 6.77386
485 6.77651
490 7.38948
495 7.31261
500 7.24327
505 7.30993
510 7.84213
515 8.7145
520 8.85418
525 9.50763
530 10.4154
535 11.5686
540 13.398
545 15.7766
550 20.1933
555 25.732
560 35.0339
565 50.7781
570 987.974
575 9999.9
580 9999.9
585 9263.17
590 1126.22
595 151.034
600 36.2217
Ex : 588
200 1.51844
205 1.63372
210 1.38212
215 1.68115
220 1.405
225 1.38077
230 1.4309
235 1.42567
240 1.50637
245 1.36852
250 1.72637
255 1.38318
260 1.39021
265 1.50451
270 1.76179
275 1.75011
280 2.20631
285 81.5402
290 363.461
295 105.355
300 14.257
305 3.70033
310 2.6253
315 2.33458
320 2.50108
325 2.41591
330 2.321
335 2.22132
340 2.30697
345 2.51956
350 2.28992
355 2.39676
360 2.4829
365 2.39883
370 2.5353
375 2.51574
380 2.79889
385 2.94072
390 2.99463
395 2.85792
400 2.98061
405 3.19613
410 3.01355
415 3.47358
420 3.40385
425 3.59052
430 3.77429
435 3.97891
440 3.80316
445 3.98514
450 4.50519
455 4.33713
460 4.78822
465 5.96185
470 5.83928
475 6.00223
480 5.96582
485 6.36921
490 6.61069
495 6.59968
500 6.68281
505 6.75864
510 7.62945
515 7.64643
520 8.13178
525 8.18265
530 8.76283
535 9.24748
540 10.336
545 12.3305
550 14.8418
555 18.1147
560 24.1241
565 31.7136
570 44.922
575 850.995
580 9999.9
585 9999.9
590 8401.07
595 1016.85
600 139.081
Ex : 593
200 1.3969
205 1.43145
210 1.39554
215 1.65652
220 1.67311
225 1.5235
230 1.58396
235 1.42465
240 1.4479
245 1.44078
250 1.32702
255 1.45493
260 1.55709
265 1.5371
270 1.72577
275 1.80796
280 2.16405
285 8.90667
290 270.654
295 276.514
300 39.0198
305 6.38038
310 2.65566
315 2.25649
320 2.24083
325 2.34204
330 2.19796
335 2.24962
340 2.25465
345 2.47722
350 2.2469
355 2.30507
360 2.36967
365 2.7287
370 2.53418
375 2.51746
380 2.57903
385 2.66605
390 2.57978
395 3.10197
400 3.21912
405 3.08256
410 2.90325
415 3.10864
420 3.15455
425 3.15793
430 3.61919
435 3.72138
440 3.64841
445 3.86309
450 4.29139
455 4.7839
460 5.15097
465 5.68352
470 6.09821
475 5.92641
480 6.15338
485 5.93092
490 6.47865
495 6.08063
500 6.39496
505 6.8925
510 6.81296
515 6.96355
520 7.42372
525 7.78987
530 8.45077
535 8.63705
540 9.15732
545 10.3246
550 11.6514
555 14.3345
560 17.6414
565 22.7136
570 29.7325
575 41.8953
580 748.231
585 9999.9
590 9999.9
595 7436.73
600 1140.88
Ex : 598
200 1.36362
205 1.42743
210 1.40949
215 1.3304
220 1.43733
225 1.32731
230 1.5429
235 1.21105
240 1.3917
245 1.5373
250 1.51962
255 1.4237
260 1.46412
265 1.46059
270 1.47392
275 1.59885
280 1.70981
285 2.14806
290 93.0065
295 425.015
300 129.367
305 16.8984
310 4.00448
315 2.31798
320 2.07463
325 2.37497
330 2.5749
335 2.34413
340 2.15957
345 2.09173
350 2.27121
355 2.1752
360 2.74027
365 2.42084
370 2.51631
375 2.33525
380 2.7052
385 2.7229
390 2.78424
395 2.92854
400 2.82659
405 2.90793
410 2.7771
415 2.90585
420 3.18978
425 3.28769
430 3.59171
435 3.47767
440 3.30866
445 3.43245
450 3.94352
455 3.68222
460 4.44543
465 4.92934
470 5.2638
475 5.62894
480 5.32559
485 5.92779
490 6.07175
495 5.75768
500 5.69039
505 6.34222
510 6.30519
515 6.30484
520 6.43816
525 6.94193
530 7.47163
535 8.15662
540 8.56606
545 9.0503
550 9.8088
555 11.4316
560 14.2702
565 16.5906
570 21.3164
575 27.0348
580 37.3702
585 738.174
590 9999.9
595 9999.9
600 9999.9
Ex : 603
200 1.15827
205 1.2331
210 1.15828
215 1.38995
220 1.26104
225 1.33389
230 1.23079
235 1.44915
240 1.24297
245 1.26423
250 1.52928
255 1.63502
260 1.54766
265 1.47139
270 1.39867
275 1.6364
280 1.85056
285 1.91063
290 9.36665
295 321.446
300 349.041
305 49.1
310 7.95183
315 2.90096
320 2.26423
325 2.62134
330 2.54566
335 2.52983
340 1.99264
345 1.99409
350 2.43884
355 2.10729
360 2.52801
365 2.38675
370 2.49604
375 2.44868
380 2.32524
385 2.68093
390 2.63957
395 2.88318
400 2.97799
405 2.9926
410 3.19129
415 3.12824
420 2.98094
425 2.93244
430 3.34243
435 3.27511
440 3.80976
445 3.67099
450 3.77995
455 4.18454
460 4.40969
465 5.48214
470 5.30974
475 4.98992
480 5.87913
485 5.53763
490 5.35711
495 5.95014
500 5.70073
505 5.97396
510 6.31966
515 6.61853
520 6.5599
525 7.00123
530 7.05598
535 7.17286
540 7.52076
545 8.52146
550 8.73622
555 9.83556
560 11.565
565 13.1081
570 16.0186
575 19.1044
580 24.0403
585 33.3988
590 656.095
595 9999.9
600 9999.9
