File format V 1.0
jeu. 12. mai 17:19:21 2016
Operator : 
Comments : 

=============================================
SpectroFluorometer parameters
Mode : 3D measurement
Data : Fluorescence
Phospho. : Ordinary
Spectrum : Fluorescence

Scan speed : 2400 nm/mn
Response : 100 ms
PM Voltage : 700 V
Shutter : On

Lambda Ex. Start : 203
Lambda Ex. End : 603
Lambda Ex. Step : 5
Ex. Slit : 5 nm

Lambda Em. Start : 200
Lambda Em. End : 600
Lambda Em. Step : 5
Em. Slit : 5 nm

Repetition : 1
Decal lambda em : 10
=============================================
DATA
Ex : 203
200 10.2738
205 11.2044
210 12.4496
215 13.2517
220 10.2287
225 11.886
230 9.73274
235 15.1959
240 8.88142
245 12.5916
250 13.2845
255 13.625
260 13.2657
265 9.88095
270 10.4323
275 18.2823
280 16.7385
285 15.4591
290 17.3445
295 17.5871
300 20.9712
305 22.0297
310 24.7302
315 19.1457
320 24.0015
325 26.2904
330 31.6664
335 27.4737
340 27.2311
345 28.6979
350 33.069
355 28.9991
360 32.5812
365 36.9772
370 34.1358
375 35.1245
380 35.9926
385 44.9619
390 40.4054
395 40.0258
400 35.4959
405 44.795
410 43.5546
415 43.1732
420 44.6354
425 39.6574
430 41.9032
435 40.6184
440 39.6273
445 41.7526
450 38.2636
455 44.4968
460 49.6067
465 45.1057
470 46.0327
475 40.06
480 40.5053
485 40.9693
490 40.4371
495 37.4169
500 36.9472
505 36.3053
510 33.2046
515 35.8262
520 33.4271
525 36.8201
530 35.487
535 33.5424
540 34.464
545 36.9987
550 39.7028
555 32.6716
560 37.06
565 36.1821
570 32.4562
575 45.2362
580 33.0631
585 25.8821
590 34.3221
595 28.8321
600 22.9547
Ex : 208
200 11.9665
205 12.7173
210 11.4826
215 9.72814
220 10.8222
225 10.2968
230 13.0089
235 9.76004
240 11.8762
245 13.9154
250 17.3377
255 13.553
260 10.4553
265 12.3518
270 15.6268
275 13.4136
280 16.2463
285 14.5764
290 17.2442
295 20.318
300 22.9386
305 21.2101
310 24.9036
315 19.6026
320 21.9413
325 30.1168
330 22.3637
335 25.0757
340 28.2171
345 27.5562
350 28.1327
355 29.7721
360 33.6828
365 29.8024
370 32.8552
375 37.1536
380 33.921
385 46.1423
390 39.6753
395 42.6269
400 43.3696
405 40.4907
410 40.9094
415 41.7007
420 35.9397
425 39.2578
430 32.8311
435 42.8144
440 41.0985
445 38.1774
450 39.4177
455 45.3695
460 45.4087
465 46.9726
470 48.3468
475 40.2755
480 41.5988
485 41.5042
490 39.5754
495 38.5626
500 41.1298
505 37.0294
510 37.4709
515 35.6228
520 33.6783
525 29.3482
530 35.8716
535 34.8002
540 33.6456
545 35.0715
550 36.3993
555 40.9529
560 37.972
565 35.718
570 37.3394
575 33.1212
580 31.4389
585 27.9207
590 29.9887
595 24.2015
600 7.62816
Ex : 213
200 10.4972
205 6.94994
210 11.0344
215 12.427
220 14.2131
225 8.76241
230 10.9154
235 9.79822
240 14.5801
245 12.0288
250 11.846
255 11.8974
260 9.90767
265 12.3611
270 10.8875
275 15.1746
280 18.8651
285 17.1815
290 15.008
295 16.5857
300 16.0004
305 18.1905
310 16.1525
315 18.8623
320 24.1291
325 23.5965
330 29.6133
335 26.8518
340 30.3388
345 30.3525
350 25.0404
355 31.2466
360 34.7128
365 33.2945
370 36.8331
375 33.1109
380 42.0999
385 34.9572
390 37.862
395 32.234
400 38.684
405 42.905
410 40.0856
415 45.9194
420 44.4596
425 36.8705
430 41.8907
435 37.7242
440 36.5971
445 43.5708
450 37.5024
455 37.9482
460 42.5241
465 51.5125
470 45.9684
475 41.2324
480 38.23
485 40.6694
490 40.1195
495 39.4278
500 35.6197
505 33.7946
510 34.2179
515 34.9784
520 28.7846
525 39.6271
530 38.3312
535 27.6351
540 33.5426
545 31.9625
550 37.9338
555 39.1264
560 41.6166
565 37.4481
570 48.3147
575 35.1752
580 34.3515
585 31.0842
590 30.5562
595 29.0462
600 40.3044
Ex : 218
200 10.1667
205 13.6256
210 16.9236
215 7.84492
220 10.6964
225 12.3652
230 9.52494
235 8.49448
240 9.80887
245 9.13944
250 14.7298
255 12.7406
260 14.9439
265 12.3556
270 12.1984
275 13.7073
280 17.2216
285 15.0597
290 16.2387
295 22.86
300 22.1335
305 22.5194
310 24.3023
315 22.9539
320 23.876
325 27.7839
330 27.8935
335 30.1279
340 31.1399
345 31.3113
350 32.7687
355 31.3529
360 29.8357
365 34.7949
370 34.5524
375 33.0705
380 32.4334
385 30.9379
390 39.5035
395 43.6239
400 39.6364
405 42.1616
410 45.3788
415 39.9154
420 37.1668
425 40.694
430 36.8938
435 41.1118
440 38.5188
445 39.1509
450 35.1446
455 41.782
460 50.7197
465 44.0518
470 41.9608
475 38.849
480 42.4815
485 32.9953
490 36.8921
495 39.6563
500 35.3296
505 34.1961
510 35.1003
515 37.6011
520 33.0002
525 30.2397
530 37.4178
535 37.884
540 36.8085
545 38.272
550 37.9485
555 36.2017
560 39.3549
565 32.9548
570 41.6143
575 34.4234
580 35.0951
585 35.6793
590 28.8923
595 29.3297
600 49.8633
Ex : 223
200 11.228
205 11.8071
210 9.02559
215 8.77114
220 8.87049
225 10.0109
230 9.54368
235 7.85177
240 10.1042
245 8.60569
250 7.34299
255 8.88529
260 11.7283
265 11.1465
270 10.7974
275 16.9829
280 17.2136
285 19.7657
290 17.8325
295 19.1171
300 16.2268
305 20.4744
310 19.9378
315 21.7564
320 27.6104
325 30.445
330 30.1229
335 32.7978
340 30.276
345 27.3599
350 35.0943
355 30.2226
360 29.0306
365 31.8948
370 34.57
375 37.8441
380 36.3684
385 34.0895
390 40.5233
395 42.5129
400 41.4375
405 36.0983
410 46.0112
415 34.5406
420 39.0709
425 41.1048
430 36.9178
435 38.8357
440 38.8798
445 44.7421
450 45.3713
455 43.2507
460 43.5416
465 43.2155
470 42.7215
475 42.7703
480 40.807
485 38.7154
490 44.7443
495 32.4219
500 31.1089
505 32.0324
510 30.1713
515 29.7067
520 38.7702
525 34.673
530 32.5291
535 32.9555
540 38.7185
545 38.1829
550 44.8332
555 33.7835
560 44.4867
565 39.2484
570 40.2261
575 34.966
580 36.6626
585 33.5126
590 29.3634
595 27.7219
600 18.3974
Ex : 228
200 8.35096
205 8.16264
210 7.69931
215 11.2668
220 11.0708
225 13.9517
230 16.0368
235 8.69539
240 9.62556
245 9.89536
250 10.8383
255 8.66976
260 7.54951
265 10.0687
270 11.5094
275 11.7414
280 13.8588
285 12.7692
290 15.1825
295 16.1979
300 17.5854
305 20.1231
310 20.2678
315 23.4672
320 23.3077
325 25.9405
330 28.3883
335 27.3392
340 27.1113
345 32.0206
350 33.4766
355 30.1911
360 28.8038
365 30.3553
370 35.1804
375 31.7624
380 38.2866
385 36.9601
390 33.6653
395 34.7761
400 38.0811
405 33.2034
410 39.4751
415 39.773
420 35.2838
425 38.2926
430 30.0938
435 35.9444
440 33.4441
445 45.2424
450 67.8232
455 124.562
460 102.129
465 65.0577
470 42.559
475 41.9033
480 41.19
485 37.1749
490 35.1535
495 36.8955
500 30.4997
505 31.0567
510 36.8375
515 35.622
520 30.9148
525 33.8458
530 29.0791
535 36.2216
540 35.4067
545 37.8681
550 34.3199
555 34.4839
560 35.4793
565 32.8497
570 41.437
575 40.0749
580 35.1459
585 31.3226
590 32.9658
595 30.0565
600 37.0961
Ex : 233
200 8.65217
205 9.94813
210 10.0704
215 7.30509
220 11.9188
225 20.7646
230 37.5513
235 18.9984
240 10.4072
245 7.4619
250 7.30415
255 9.31678
260 13.521
265 9.88598
270 10.184
275 13.7399
280 17.458
285 15.3639
290 20.1298
295 14.9705
300 15.8296
305 18.6521
310 20.5424
315 21.8569
320 21.1465
325 23.5417
330 31.2071
335 31.4379
340 34.2189
345 33.0038
350 38.4821
355 29.1726
360 30.4755
365 31.4345
370 33.6082
375 32.8057
380 33.1643
385 34.9082
390 38.7341
395 35.057
400 34.5927
405 33.9708
410 34.636
415 31.6555
420 39.066
425 35.4226
430 30.5234
435 29.0675
440 33.9353
445 39.5344
450 36.7653
455 78.1838
460 228.625
465 343.125
470 244.904
475 76.7568
480 36.5478
485 32.7095
490 33.8645
495 27.0782
500 31.1637
505 35.7304
510 36.8352
515 28.9861
520 28.1472
525 32.5888
530 34.7083
535 35.1884
540 33.1951
545 32.0088
550 33.8222
555 34.4436
560 35.6297
565 37.8981
570 36.9684
575 34.8197
580 29.1564
585 29.3581
590 27.4958
595 28.8328
600 23.3683
Ex : 238
200 7.748
205 9.29554
210 8.49496
215 7.97452
220 10.4989
225 9.28646
230 56.6854
235 89.6194
240 28.2106
245 12.1635
250 10.1247
255 10.9224
260 10.8745
265 12.4512
270 11.8143
275 11.3575
280 15.5686
285 13.3869
290 15.4357
295 16.6369
300 18.1732
305 18.6186
310 22.4544
315 24.0527
320 21.5996
325 24.077
330 26.9211
335 29.7621
340 26.1011
345 29.4908
350 29.9586
355 28.7868
360 34.2648
365 27.8957
370 28.433
375 28.8534
380 31.8377
385 33.9103
390 34.7902
395 32.4446
400 31.6289
405 31.5949
410 32.4917
415 33.6102
420 34.9399
425 31.0446
430 29.8021
435 28.5277
440 31.2425
445 36.7337
450 36.8322
455 30.3693
460 47.9347
465 214.76
470 518.13
475 611.325
480 389.527
485 106.749
490 42.784
495 33.1443
500 33.6829
505 31.9536
510 30.3918
515 38.2976
520 30.0399
525 34.5485
530 30.5001
535 32.5531
540 31.5436
545 32.6257
550 32.7731
555 32.1615
560 35.8964
565 35.8475
570 32.2309
575 32.5767
580 33.5173
585 27.8306
590 28.3615
595 27.1618
600 45.8059
Ex : 243
200 8.03051
205 7.91035
210 8.23343
215 6.91049
220 6.37005
225 8.74153
230 12.706
235 89.9951
240 146.144
245 41.8951
250 10.0311
255 9.2782
260 11.7789
265 8.546
270 12.1987
275 10.6278
280 12.987
285 14.4165
290 12.8085
295 15.3424
300 17.6555
305 14.9483
310 18.5677
315 21.22
320 22.1908
325 20.7327
330 20.7833
335 19.6517
340 26.2046
345 28.2991
350 25.9513
355 26.3973
360 26.6448
365 30.2032
370 27.9456
375 24.8738
380 32.0784
385 26.4487
390 28.7126
395 27.5171
400 31.1113
405 29.3514
410 27.9993
415 28.4297
420 23.3003
425 26.8905
430 24.5276
435 23.3
440 25.3622
445 26.3433
450 32.1867
455 28.0486
460 30.7978
465 31.6825
470 67.3702
475 339.728
480 727.611
485 755.613
490 444.192
495 103.219
500 35.9843
505 28.0835
510 28.4214
515 30.2694
520 34.5916
525 33.2402
530 32.5168
535 30.2373
540 29.6411
545 30.0955
550 34.7472
555 32.8085
560 31.8076
565 35.6294
570 28.1476
575 30.7771
580 31.039
585 29.5841
590 28.8606
595 27.2861
600 38.1734
Ex : 248
200 5.25278
205 5.85149
210 4.62918
215 6.70115
220 5.7306
225 5.0028
230 5.6487
235 12.9223
240 109.332
245 144.321
250 38.5536
255 10.8375
260 9.26541
265 10.7327
270 10.2538
275 13.6628
280 12.0183
285 11.6082
290 11.9355
295 15.7765
300 13.7968
305 19.0498
310 17.7028
315 18.8354
320 19.4838
325 18.7668
330 19.9286
335 22.0848
340 27.5312
345 22.0035
350 24.9077
355 21.1942
360 21.7984
365 24.8547
370 24.2832
375 26.2031
380 25.2538
385 22.0635
390 25.1688
395 26.5014
400 26.6241
405 24.5439
410 26.622
415 23.6926
420 21.4415
425 19.9878
430 22.4037
435 24.571
440 23.8501
445 23.2283
450 23.7508
455 24.2605
460 26.6508
465 28.2287
470 28.4295
475 27.6223
480 86.1092
485 425.742
490 1020.16
495 893.531
500 432.325
505 91.7935
510 36.9462
515 30.0749
520 28.8847
525 27.989
530 34.769
535 38.7327
540 38.9454
545 34.9187
550 33.3391
555 31.6972
560 29.7993
565 31.0343
570 32.0105
575 29.2146
580 31.2095
585 27.6447
590 26.7466
595 23.3855
600 21.8623
Ex : 253
200 4.46767
205 5.48153
210 3.99173
215 3.68133
220 4.96489
225 4.55482
230 3.87163
235 4.19621
240 13.0608
245 111.715
250 200.931
255 68.2826
260 14.0838
265 10.8279
270 14.3769
275 13.2554
280 9.46097
285 14.9158
290 14.1235
295 14.0819
300 16.2939
305 17.6043
310 15.4856
315 19.9106
320 19.1262
325 18.2289
330 18.5118
335 17.6815
340 18.6299
345 18.8844
350 17.0023
355 19.4132
360 21.736
365 19.01
370 21.3865
375 19.457
380 22.6533
385 21.0187
390 21.8053
395 22.2957
400 19.0777
405 20.6617
410 22.1535
415 20.7144
420 21.4096
425 18.7659
430 17.52
435 19.9771
440 21.8368
445 20.0352
450 20.4598
455 20.4771
460 20.0988
465 21.7422
470 19.4987
475 21.1258
480 20.352
485 20.4328
490 85.3537
495 431.754
500 1038.41
505 1319.2
510 749.309
515 161.8
520 46.3296
525 30.5541
530 27.9259
535 30.4281
540 34.8775
545 38.3301
550 33.7956
555 35.0855
560 33.3582
565 32.35
570 31.3916
575 32.2607
580 29.6248
585 26.2715
590 24.3925
595 25.2359
600 19.2665
Ex : 258
200 2.97749
205 3.28317
210 3.25763
215 4.66005
220 3.71082
225 3.26229
230 4.93245
235 4.403
240 4.67453
245 11.8644
250 265.57
255 514.539
260 164.397
265 28.8733
270 13.3193
275 16.1036
280 18.296
285 16.738
290 17.5795
295 20.1433
300 19.924
305 20.2662
310 22.8847
315 20.6902
320 21.8878
325 21.1459
330 16.8948
335 19.4784
340 18.5621
345 20.2312
350 17.3432
355 16.9834
360 16.9937
365 19.0751
370 19.032
375 18.6912
380 16.6643
385 16.4599
390 17.6121
395 17.4474
400 19.4809
405 19.3832
410 21.0112
415 17.4935
420 17.0923
425 16.5674
430 15.9341
435 18.6658
440 18.4303
445 15.5656
450 16.701
455 15.4662
460 18.2775
465 19.868
470 18.8254
475 18.7087
480 20.2615
485 15.4683
490 18.3635
495 19.6489
500 95.0498
505 812.933
510 2747.36
515 3279.62
520 1748.2
525 310.088
530 68.8914
535 38.923
540 34.9893
545 34.2684
550 35.7709
555 43.7323
560 44.0471
565 46.8574
570 43.1479
575 39.3376
580 39.1822
585 36.8495
590 34.1027
595 34.234
600 27.3168
Ex : 263
200 3.09023
205 3.1428
210 3.36756
215 2.4416
220 2.64824
225 2.90871
230 3.1766
235 3.7586
240 4.13898
245 3.88807
250 33.7739
255 611.408
260 1175.56
265 309.568
270 47.2424
275 19.7739
280 22.1246
285 25.9479
290 26.6638
295 28.0477
300 29.9112
305 26.6615
310 25.5092
315 24.0631
320 23.4519
325 22.4629
330 19.943
335 18.8115
340 19.4128
345 17.6495
350 18.9404
355 17.064
360 16.1519
365 17.5507
370 16.2565
375 16.0514
380 17.3796
385 14.7319
390 15.5422
395 15.2298
400 16.9047
405 16.9314
410 17.3789
415 16.3998
420 16.895
425 14.5589
430 14.9847
435 16.3893
440 14.5703
445 15.9616
450 15.2733
455 15.982
460 17.8953
465 17.5305
470 16.754
475 17.3121
480 15.9844
485 15.6075
490 17.9901
495 15.6242
500 16.2656
505 22.1928
510 253.004
515 2024.03
520 5677.23
525 6278.9
530 2714.1
535 465.871
540 94.0027
545 48.8675
550 39.6551
555 43.171
560 49.0658
565 56.4696
570 65.3964
575 61.5875
580 56.7774
585 53.2436
590 50.8874
595 47.9388
600 40.2504
Ex : 268
200 2.67216
205 2.95314
210 2.84756
215 3.25649
220 3.65904
225 4.01501
230 3.35177
235 2.49778
240 2.92953
245 4.94321
250 4.85245
255 56.2471
260 1037.9
265 1974.75
270 594.81
275 86.8839
280 32.4797
285 32.8991
290 38.2086
295 37.304
300 35.0617
305 33.0885
310 32.5245
315 26.3969
320 27.2576
325 23.224
330 21.5289
335 19.7309
340 19.4029
345 17.9207
350 17.1189
355 16.2893
360 14.3344
365 17.0852
370 16.6185
375 14.4683
380 15.3565
385 14.1587
390 15.6425
395 14.7094
400 14.2543
405 14.6553
410 14.808
415 15.9982
420 14.1902
425 13.6763
430 13.614
435 13.8332
440 14.3308
445 12.7833
450 12.0724
455 15.1242
460 14.1288
465 15.7343
470 15.7369
475 14.0117
480 14.2623
485 13.514
490 14.5187
495 15.2496
500 16.236
505 18.3954
510 19.2149
515 25.5838
520 412.707
525 3322.05
530 9047.27
535 9831.05
540 4550.99
545 774.759
550 138.496
555 64.5957
560 57.1913
565 63.5586
570 67.9981
575 73.1421
580 76.8917
585 77.0028
590 68.2106
595 60.333
600 44.5293
Ex : 273
200 2.20455
205 3.38535
210 3.12588
215 3.36116
220 3.20025
225 3.11749
230 3.01624
235 3.06224
240 3.46133
245 3.4956
250 5.45099
255 6.62139
260 97.9219
265 1933.15
270 3583.83
275 931.791
280 136.882
285 49.0686
290 40.5889
295 44.8328
300 41.9324
305 37.4739
310 33.5398
315 28.8306
320 25.9874
325 23.6709
330 22.5879
335 21.4854
340 20.4564
345 18.753
350 18.6096
355 16.2672
360 16.2113
365 15.5045
370 13.9077
375 13.7487
380 12.8311
385 14.6433
390 14.3846
395 13.3056
400 13.4608
405 12.866
410 14.1002
415 13.4576
420 13.6932
425 13.1391
430 13.4589
435 13.3518
440 12.3919
445 13.4313
450 12.7462
455 13.4153
460 14.2126
465 14.7769
470 13.6411
475 13.309
480 12.8215
485 13.6312
490 14.3395
495 14.1888
500 13.8345
505 14.6796
510 16.2887
515 17.9846
520 22.8378
525 36.139
530 758.369
535 5760.21
540 9999.9
545 9999.9
550 5554.4
555 925.919
560 178.863
565 89.9107
570 77.4919
575 71.6122
580 75.8768
585 77.7475
590 78.5376
595 75.7514
600 63.3933
Ex : 278
200 2.72087
205 3.59504
210 3.43539
215 3.29925
220 3.4123
225 3.18379
230 3.5648
235 3.19575
240 2.89795
245 3.47415
250 4.05464
255 5.84878
260 7.71632
265 152.658
270 2906.07
275 5230.88
280 1277.88
285 181.853
290 55
295 40.7988
300 41.2929
305 38.6038
310 31.0766
315 27.9042
320 25.7542
325 23.4939
330 22.6568
335 21.435
340 19.6959
345 16.6593
350 17.0041
355 15.3178
360 15.296
365 13.5014
370 13.2805
375 12.3894
380 14.0302
385 12.2776
390 12.6422
395 12.6531
400 13.8643
405 13.1125
410 13.487
415 12.465
420 11.2283
425 12.8345
430 12.6417
435 12.2569
440 11.5706
445 12.1193
450 11.7655
455 12.442
460 13.904
465 12.5857
470 13.6166
475 13.5096
480 12.4751
485 12.5873
490 13.0318
495 14.2201
500 13.8706
505 14.8954
510 15.3672
515 17.9265
520 18.3306
525 22.6753
530 27.7728
535 46.5811
540 1154.91
545 8020.14
550 9999.9
555 9999.9
560 6377.32
565 1072.34
570 202.123
575 93.9146
580 77.9926
585 69.4738
590 67.6392
595 65.3374
600 64.6186
Ex : 283
200 2.54757
205 2.7692
210 2.91409
215 3.05854
220 3.2986
225 3.19322
230 3.06328
235 3.50048
240 3.80159
245 3.83474
250 4.33587
255 4.87224
260 7.21719
265 10.4923
270 213.374
275 3916.57
280 6386.92
285 1572.9
290 209.749
295 49.0608
300 29.474
305 30.047
310 28.2747
315 22.5357
320 20.2479
325 18.2161
330 17.6808
335 17.5229
340 17.1558
345 16.6753
350 15.8479
355 13.8279
360 13.5478
365 12.9833
370 12.7868
375 12.8923
380 13.0144
385 12.6528
390 12.6637
395 12.7784
400 12.7869
405 11.7929
410 12.3142
415 12.5726
420 12.1788
425 12.3538
430 11.998
435 12.0751
440 12.7306
445 11.617
450 11.4216
455 12.7606
460 12.1502
465 11.819
470 11.3468
475 11.7963
480 12.095
485 11.4213
490 11.9126
495 12.0251
500 12.2234
505 12.3296
510 13.1271
515 13.5412
520 15.2668
525 17.3136
530 20.7516
535 23.8146
540 32.2999
545 59.7521
550 1540.83
555 9717.59
560 9999.9
565 9999.9
570 6411.77
575 1041.82
580 183.555
585 75.1404
590 54.4214
595 46.3972
600 51.6707
Ex : 288
200 2.22286
205 2.62709
210 2.86711
215 2.73982
220 2.93817
225 2.92455
230 2.86953
235 3.0331
240 3.53344
245 3.55031
250 3.80621
255 4.25081
260 4.98298
265 6.78312
270 11.1591
275 242.924
280 4609.55
285 7337.01
290 1815.82
295 234.794
300 45.7877
305 23.1718
310 23.1816
315 22.853
320 18.5996
325 16.1103
330 15.0781
335 15.1783
340 14.8547
345 14.8793
350 14.4122
355 13.2614
360 12.5886
365 12.3499
370 13.1946
375 11.6056
380 11.721
385 11.8689
390 12.6602
395 12.7382
400 12.0686
405 12.4455
410 12.7023
415 11.8655
420 12.0125
425 12.1058
430 10.9971
435 10.5445
440 11.6301
445 11.0567
450 10.7084
455 10.0699
460 10.7374
465 11.5733
470 10.9484
475 10.682
480 11.078
485 10.4612
490 10.8837
495 9.97532
500 10.7021
505 11.0227
510 11.305
515 12.2215
520 12.5634
525 14.0566
530 14.7447
535 17.3012
540 20.6235
545 25.9732
550 35.8203
555 63.0655
560 1738.2
565 9999.9
570 9999.9
575 9999.9
580 6293.82
585 975.971
590 162.618
595 59.9326
600 45.452
Ex : 293
200 2.15812
205 2.65226
210 2.31475
215 2.37059
220 2.38177
225 3.00276
230 2.61205
235 2.76274
240 3.15249
245 3.29136
250 3.64826
255 4.26464
260 4.82078
265 5.76349
270 7.74179
275 12.665
280 323.531
285 5246.34
290 7887.56
295 1928.24
300 246.853
305 45.7779
310 20.6688
315 21.0604
320 22.1407
325 18.601
330 16.1903
335 14.496
340 14.4603
345 13.9182
350 13.2705
355 12.0107
360 12.3568
365 11.7139
370 11.5488
375 11.3039
380 11.0869
385 11.5754
390 12.8211
395 11.4586
400 11.9306
405 12.2381
410 11.7158
415 11.3653
420 10.801
425 10.5495
430 10.4656
435 10.6807
440 10.4779
445 10.0769
450 10.5073
455 9.9411
460 9.84163
465 10.0923
470 10.7176
475 10.3518
480 9.95563
485 9.75449
490 10.0653
495 9.50156
500 9.55715
505 9.7658
510 9.59548
515 9.65564
520 10.3097
525 10.8183
530 11.6188
535 12.9737
540 15.028
545 17.6511
550 22.0481
555 27.3971
560 37.2891
565 71.055
570 2007.56
575 9999.9
580 9999.9
585 9999.9
590 5384.9
595 800.374
600 146.867
Ex : 298
200 2.0082
205 2.00389
210 2.17149
215 2.38668
220 2.2563
225 2.61919
230 2.64461
235 2.67286
240 2.62333
245 2.83766
250 3.20102
255 3.59931
260 3.99731
265 4.6771
270 6.05914
275 8.23868
280 13.722
285 356.63
290 5946.96
295 9003.29
300 2181.07
305 276.075
310 51.3714
315 22.5544
320 20.9627
325 22.5479
330 18.5703
335 14.3118
340 13.1741
345 13.7284
350 12.8416
355 11.9738
360 11.1806
365 11.4763
370 10.6161
375 11.5907
380 10.5677
385 11.3349
390 10.9057
395 11.5002
400 11.6101
405 11.4305
410 11.5012
415 10.6971
420 10.4076
425 10.432
430 9.38242
435 9.84216
440 9.53967
445 9.82516
450 9.31141
455 9.20623
460 9.29655
465 9.59408
470 9.53045
475 9.03123
480 8.20266
485 8.27651
490 8.52507
495 8.35632
500 8.24091
505 8.66177
510 8.46232
515 8.94144
520 8.91826
525 9.55323
530 9.62617
535 10.3699
540 12.0002
545 12.9814
550 15.3506
555 18.0675
560 22.1937
565 27.4388
570 36.5052
575 77.0421
580 2293.71
585 9999.9
590 9999.9
595 9999.9
600 8913.55
Ex : 303
200 2.15971
205 2.05908
210 1.89785
215 2.30265
220 2.31894
225 2.28858
230 2.33922
235 2.78762
240 2.53005
245 3.002
250 2.95356
255 3.258
260 3.77994
265 3.90213
270 4.87328
275 6.02781
280 9.06573
285 15.045
290 384.885
295 6616.86
300 9999.9
305 2363.13
310 298.581
315 54.0653
320 22.162
325 19.9221
330 21.1965
335 18.9113
340 14.1501
345 12.504
350 11.0997
355 10.6533
360 9.95158
365 10.2649
370 9.90726
375 9.65101
380 9.83292
385 9.98584
390 10.044
395 10.5812
400 10.7198
405 10.4265
410 10.2441
415 10.0768
420 9.44733
425 9.15204
430 9.85829
435 8.9891
440 8.58427
445 9.03108
450 8.98613
455 8.4222
460 8.06816
465 8.30666
470 8.38532
475 8.4966
480 8.50294
485 8.00776
490 8.14871
495 7.43791
500 7.28973
505 7.18765
510 7.43621
515 7.87762
520 7.48358
525 7.74875
530 8.38127
535 8.69397
540 9.31294
545 9.69828
550 11.1573
555 12.6658
560 14.0551
565 17.3535
570 20.7741
575 25.7001
580 35.3067
585 82.4842
590 2478.11
595 9999.9
600 9999.9
Ex : 308
200 2.14759
205 2.2342
210 2.04631
215 2.13967
220 2.07343
225 2.24663
230 2.23826
235 2.30456
240 2.66266
245 2.81679
250 2.82052
255 2.64019
260 3.21436
265 3.6882
270 4.28018
275 5.52494
280 6.21881
285 9.29535
290 15.4193
295 458.946
300 7196.51
305 9999.9
310 2443.28
315 308.264
320 55.948
325 22.3427
330 18.7784
335 20.6453
340 18.9343
345 13.9287
350 11.436
355 10.0409
360 10.1016
365 9.68302
370 9.24928
375 9.18039
380 9.05205
385 10.1317
390 9.38253
395 9.74366
400 9.57127
405 9.89787
410 9.02649
415 9.31064
420 9.39797
425 8.38742
430 8.34451
435 8.01903
440 7.85654
445 7.86188
450 7.62146
455 8.01603
460 7.99038
465 7.96128
470 7.38903
475 7.05618
480 7.20543
485 7.1731
490 6.86302
495 6.96702
500 6.85
505 6.81443
510 6.51203
515 6.59716
520 6.95416
525 7.18974
530 7.1588
535 7.53691
540 8.17479
545 8.47523
550 9.24856
555 10.7232
560 10.7787
565 12.4891
570 14.6126
575 17.0616
580 20.1701
585 25.5055
590 35.0059
595 93.7164
600 410.874
Ex : 313
200 1.93344
205 2.04383
210 2.09854
215 2.14431
220 1.9698
225 2.09126
230 2.32082
235 2.11007
240 2.35694
245 2.33669
250 2.95478
255 2.75829
260 2.6332
265 3.07896
270 4.02963
275 4.28186
280 5.45333
285 6.8184
290 9.64452
295 16.4426
300 487.675
305 8209.31
310 9999.9
315 2585.27
320 326.12
325 58.0136
330 21.9747
335 17.9704
340 19.734
345 18.7644
350 14.4299
355 10.9685
360 10.5848
365 9.61978
370 8.86108
375 9.10145
380 8.77158
385 8.43064
390 8.82045
395 8.99557
400 8.79208
405 8.60319
410 8.47819
415 8.057
420 7.91261
425 7.75826
430 7.46046
435 7.42629
440 6.82781
445 6.79464
450 7.27902
455 6.74646
460 7.25384
465 6.94093
470 6.6137
475 6.45315
480 6.62451
485 6.25473
490 6.70114
495 6.35373
500 6.07715
505 6.61362
510 5.89087
515 5.97722
520 5.75873
525 6.20042
530 6.47716
535 6.92148
540 7.09044
545 7.46278
550 7.5487
555 8.30341
560 8.59104
565 9.76701
570 10.6497
575 12.2644
580 13.5518
585 15.864
590 19.3025
595 24.0637
600 24.3537
Ex : 318
200 1.72201
205 1.83083
210 1.96289
215 2.14977
220 2.10449
225 1.80922
230 1.72801
235 2.06958
240 2.31924
245 2.26204
250 2.48727
255 2.52166
260 2.45254
265 2.82852
270 3.27085
275 3.71331
280 4.5686
285 5.63169
290 7.50997
295 10.2197
300 17.5514
305 610.673
310 9207.5
315 9999.9
320 2713.39
325 341.756
330 60.1944
335 22.8595
340 17.3809
345 18.381
350 17.8206
355 14.8753
360 11.0407
365 10.0479
370 8.78923
375 8.38088
380 8.99507
385 8.59628
390 8.92994
395 8.13042
400 8.06333
405 8.18182
410 7.64165
415 7.54623
420 7.47923
425 6.74476
430 6.59581
435 6.67073
440 6.71046
445 6.9543
450 6.66923
455 6.39662
460 6.62309
465 6.80965
470 7.1507
475 6.79569
480 6.24356
485 6.31063
490 5.76165
495 5.77267
500 5.60712
505 5.62978
510 5.71076
515 5.76705
520 5.78506
525 5.77554
530 5.75898
535 6.01742
540 6.49097
545 6.43113
550 6.76663
555 7.16163
560 7.82579
565 8.27296
570 8.97626
575 9.04196
580 10.0659
585 10.5532
590 12.8488
595 15.5254
600 18.9411
Ex : 323
200 1.94442
205 1.81165
210 1.71172
215 1.86338
220 1.89976
225 1.90196
230 1.90019
235 2.00375
240 2.22684
245 2.22558
250 2.37403
255 2.71444
260 2.51387
265 2.51535
270 3.10864
275 3.42498
280 4.06725
285 4.80019
290 5.73093
295 7.55814
300 11.026
305 19.0488
310 637.974
315 9975.96
320 9999.9
325 2975.49
330 373.897
335 64.3936
340 23.3125
345 16.8913
350 18.0906
355 18.549
360 16.0364
365 11.5347
370 9.57862
375 8.95809
380 9.11835
385 8.47554
390 8.62521
395 8.01291
400 7.8511
405 7.72152
410 7.3955
415 7.49583
420 7.03591
425 6.74636
430 6.40401
435 6.9353
440 6.55091
445 6.48618
450 6.43536
455 6.37294
460 6.98389
465 6.25842
470 6.29639
475 5.9718
480 5.80739
485 5.62198
490 5.74621
495 5.4655
500 5.2338
505 5.7671
510 5.70966
515 5.48654
520 5.57133
525 5.73944
530 5.72026
535 5.38041
540 5.81168
545 6.03418
550 5.81627
555 6.54021
560 6.40347
565 6.69571
570 6.98796
575 8.17242
580 8.31717
585 8.95078
590 9.80553
595 10.9064
600 11.6233
Ex : 328
200 1.69335
205 1.71156
210 1.64975
215 1.7325
220 1.778
225 1.73299
230 2.06302
235 2.04846
240 1.91756
245 2.00469
250 2.25536
255 2.24038
260 2.39197
265 2.44111
270 2.80179
275 3.47269
280 3.72806
285 4.2024
290 4.61301
295 6.36875
300 7.80644
305 11.6417
310 19.4883
315 665.579
320 9999.9
325 9999.9
330 3046.63
335 383.484
340 66.521
345 24.0658
350 16.8482
355 15.9636
360 16.9563
365 15.8342
370 12.4234
375 9.6328
380 9.14506
385 9.02553
390 8.7236
395 8.05484
400 7.58848
405 7.36256
410 7.04024
415 7.3555
420 6.96913
425 6.34421
430 6.80646
435 6.46456
440 5.92077
445 6.1365
450 6.12627
455 6.33288
460 6.33742
465 6.47064
470 5.97122
475 5.77963
480 5.96705
485 5.73548
490 5.67878
495 5.33608
500 5.42376
505 5.13163
510 5.22351
515 5.20861
520 4.81003
525 5.10976
530 5.2371
535 5.1526
540 5.17891
545 5.15563
550 5.50103
555 5.52903
560 5.89076
565 6.17446
570 6.01882
575 6.50829
580 6.92893
585 7.40735
590 7.31178
595 8.1221
600 11.3433
Ex : 333
200 1.9006
205 1.7412
210 1.71418
215 1.84692
220 1.95442
225 1.82163
230 1.6699
235 1.80941
240 1.9165
245 2.14383
250 2.03335
255 2.21783
260 2.34777
265 2.34242
270 2.61106
275 2.8456
280 3.26603
285 3.71543
290 4.24778
295 4.83179
300 6.26967
305 8.57503
310 12.3919
315 20.9838
320 793.098
325 9999.9
330 9999.9
335 3178.88
340 397.173
345 67.4712
350 23.437
355 15.9189
360 15.4595
365 16.1467
370 15.6421
375 12.4187
380 10.0671
385 8.91185
390 8.69577
395 8.22458
400 7.64438
405 7.89978
410 7.51888
415 7.13597
420 6.79596
425 6.28924
430 6.70443
435 6.56024
440 6.32477
445 6.35095
450 6.15496
455 6.12401
460 6.2493
465 6.12643
470 5.77858
475 5.53992
480 5.84469
485 5.26476
490 5.35994
495 5.17565
500 5.03122
505 5.14998
510 4.69535
515 4.72749
520 4.93803
525 4.84721
530 4.60376
535 4.56852
540 5.04822
545 4.73552
550 5.11829
555 4.98266
560 5.13154
565 5.28799
570 5.07388
575 5.60232
580 5.8429
585 5.58912
590 6.27626
595 6.80201
600 4.10011
Ex : 338
200 1.53436
205 1.9011
210 1.57061
215 1.82151
220 1.90589
225 1.73243
230 1.84997
235 2.00228
240 2.03011
245 1.93664
250 2.06138
255 2.01824
260 2.13959
265 2.20127
270 2.33116
275 2.74904
280 2.90156
285 3.28141
290 3.70346
295 4.42435
300 5.57707
305 6.52144
310 8.97642
315 13.4046
320 23.3676
325 879.992
330 9999.9
335 9999.9
340 3243
345 405.868
350 69.3913
355 23.7118
360 15.9455
365 14.6346
370 15.984
375 15.4151
380 13.179
385 10.0424
390 9.23948
395 8.64771
400 8.44421
405 8.06821
410 7.58158
415 7.20487
420 6.81291
425 6.37421
430 6.49474
435 6.15964
440 6.12088
445 6.00068
450 6.02453
455 5.81068
460 6.17207
465 6.05397
470 5.82836
475 5.2504
480 5.30816
485 5.1596
490 4.84888
495 4.83751
500 4.91963
505 4.74372
510 4.75212
515 4.94271
520 4.68151
525 4.73908
530 4.5907
535 4.7304
540 4.64583
545 4.31197
550 4.57919
555 4.59677
560 4.62903
565 4.85211
570 4.7763
575 5.14651
580 5.12734
585 5.12214
590 5.32286
595 5.8575
600 6.55386
Ex : 343
200 1.49867
205 1.45646
210 1.55468
215 1.52601
220 1.59642
225 1.56913
230 1.73303
235 1.88431
240 1.83131
245 1.95945
250 1.95089
255 1.94838
260 2.04273
265 2.24534
270 2.35547
275 2.32013
280 2.57701
285 3.0163
290 3.4333
295 3.86674
300 4.32082
305 5.21429
310 6.71344
315 9.07052
320 13.678
325 23.8768
330 866.021
335 9999.9
340 9999.9
345 3387.96
350 423.305
355 70.9546
360 24.1669
365 16.0194
370 13.6694
375 14.4875
380 15.3593
385 13.7513
390 10.8327
395 8.69169
400 8.21781
405 7.38167
410 7.32987
415 6.97496
420 6.71418
425 6.6769
430 6.53921
435 6.0812
440 6.07608
445 5.68419
450 5.86514
455 5.81905
460 5.89236
465 5.85361
470 5.67375
475 5.38701
480 5.60148
485 5.15057
490 5.07056
495 4.9387
500 4.63672
505 4.59274
510 4.45044
515 4.45121
520 4.11423
525 4.17582
530 4.13576
535 4.17951
540 4.36149
545 4.45321
550 4.2077
555 4.60493
560 4.51839
565 4.02977
570 4.63642
575 4.43819
580 4.54713
585 4.43645
590 4.90398
595 5.15012
600 4.48536
Ex : 348
200 1.34016
205 1.56005
210 1.55592
215 1.38738
220 1.54478
225 1.51228
230 1.53393
235 1.50282
240 1.61349
245 1.75649
250 1.59187
255 1.88126
260 1.85408
265 1.8648
270 2.17885
275 2.20803
280 2.40312
285 2.57787
290 2.98783
295 3.31658
300 3.82706
305 4.656
310 5.26761
315 7.06516
320 9.64404
325 13.941
330 23.9774
335 835.682
340 9999.9
345 9999.9
350 3872.47
355 479.438
360 77.4865
365 25.332
370 16.5619
375 13.7343
380 13.4731
385 14.6377
390 14.3139
395 11.5137
400 8.97512
405 8.30753
410 7.969
415 7.68809
420 6.98557
425 6.80914
430 6.54232
435 6.35498
440 6.04226
445 5.9265
450 5.63745
455 5.67203
460 5.55879
465 5.89651
470 5.66814
475 5.36353
480 5.44711
485 5.21546
490 4.97469
495 4.61623
500 4.6626
505 4.353
510 4.3285
515 4.04121
520 4.12087
525 4.14642
530 3.96183
535 3.8575
540 4.06158
545 3.93537
550 3.88699
555 3.73914
560 3.89798
565 4.07304
570 3.75126
575 3.70803
580 3.86426
585 3.81515
590 4.10346
595 4.43307
600 5.45424
Ex : 353
200 1.39639
205 1.38842
210 1.3147
215 1.26648
220 1.39734
225 1.35417
230 1.45154
235 1.47724
240 1.37
245 1.46753
250 1.84963
255 1.71695
260 1.93808
265 2.19884
270 2.14106
275 2.08838
280 2.35325
285 2.51652
290 2.69399
295 3.18787
300 3.54719
305 3.75606
310 4.81318
315 5.52975
320 6.98837
325 9.57892
330 14.7786
335 25.2243
340 873.487
345 9999.9
350 9999.9
355 3740.82
360 463.212
365 75.5345
370 24.5594
375 15.4672
380 13.1726
385 12.8227
390 14.5761
395 14.3249
400 11.9904
405 9.63239
410 8.10333
415 7.8637
420 7.08082
425 6.88789
430 6.36187
435 6.22103
440 5.7894
445 6.01027
450 5.62331
455 5.52087
460 5.68852
465 5.42356
470 5.45144
475 4.92784
480 5.11667
485 5.06495
490 4.66585
495 4.7018
500 4.50645
505 4.06334
510 4.04124
515 3.84366
520 3.82008
525 3.88832
530 3.83912
535 3.71348
540 3.99338
545 3.69601
550 3.72451
555 3.69462
560 3.6832
565 3.83357
570 3.57579
575 3.59479
580 3.48198
585 3.41424
590 3.6412
595 3.61198
600 2.9361
Ex : 358
200 1.17668
205 1.30093
210 1.32452
215 1.3911
220 1.34408
225 1.29864
230 1.44625
235 1.45657
240 1.48977
245 1.475
250 1.50187
255 1.58775
260 1.80894
265 1.80787
270 2.01176
275 2.00241
280 1.88547
285 2.33328
290 2.4319
295 2.62224
300 2.83378
305 3.28314
310 4.01563
315 4.76386
320 5.74347
325 7.27422
330 9.89938
335 14.5546
340 24.3823
345 862.123
350 9999.9
355 9999.9
360 3890.87
365 480.95
370 77.9883
375 25.029
380 15.9236
385 12.7027
390 12.0212
395 13.8401
400 14.0165
405 12.9733
410 9.89079
415 8.30965
420 7.4274
425 7.17738
430 7.11539
435 6.46232
440 6.02437
445 5.88565
450 5.79574
455 5.47011
460 5.69873
465 5.39804
470 5.2211
475 5.0023
480 4.85861
485 4.76202
490 4.42125
495 4.31595
500 4.30999
505 4.19653
510 3.89153
515 3.99072
520 3.88643
525 3.73195
530 3.72431
535 3.53331
540 3.50094
545 3.32312
550 3.36768
555 3.5261
560 3.46622
565 3.43122
570 3.44056
575 3.37691
580 3.33426
585 3.58003
590 3.1672
595 3.1476
600 3.8843
Ex : 363
200 1.23458
205 1.15243
210 1.2727
215 1.24781
220 1.23368
225 1.19207
230 1.27433
235 1.32368
240 1.36307
245 1.40535
250 1.49386
255 1.35602
260 1.45818
265 1.67341
270 1.76705
275 1.75965
280 2.05728
285 2.11684
290 2.3113
295 2.30969
300 2.61374
305 3.10846
310 3.39997
315 4.00941
320 4.74006
325 5.80471
330 7.30852
335 10.0145
340 14.0598
345 25.3745
350 811.616
355 9999.9
360 9999.9
365 4141.96
370 510.815
375 81.6029
380 25.6089
385 16.0818
390 13.0285
395 11.1699
400 12.6777
405 13.1521
410 12.4705
415 9.95021
420 8.0346
425 7.28574
430 6.78185
435 6.38038
440 5.94962
445 6.02259
450 5.95503
455 5.64114
460 5.46285
465 5.64747
470 5.04741
475 4.9022
480 4.65064
485 4.48829
490 4.2958
495 4.16606
500 4.10305
505 4.02752
510 3.86585
515 3.71701
520 3.59633
525 3.2704
530 3.46894
535 3.13624
540 3.18088
545 3.07112
550 3.13327
555 3.18729
560 3.17084
565 3.06723
570 3.19155
575 2.90854
580 2.71153
585 2.8556
590 3.10811
595 2.8312
600 2.07349
Ex : 368
200 1.27761
205 1.16093
210 1.08608
215 1.13053
220 1.25087
225 1.32255
230 1.19757
235 1.24195
240 1.26362
245 1.29342
250 1.423
255 1.44696
260 1.57197
265 1.60505
270 1.55924
275 1.55109
280 1.68162
285 1.9195
290 2.17608
295 2.23488
300 2.51292
305 2.64081
310 2.86588
315 3.30848
320 3.90402
325 4.8127
330 5.67895
335 7.33538
340 10.002
345 14.9988
350 25.543
355 698.574
360 9999.9
365 9999.9
370 4587.15
375 565.909
380 88.5211
385 26.8173
390 16.2306
395 13.4384
400 10.9208
405 11.7656
410 12.9196
415 12.2868
420 10.6451
425 8.60582
430 7.24438
435 6.97712
440 6.5061
445 6.20875
450 5.85047
455 5.81343
460 5.42747
465 5.15933
470 5.15543
475 5.06296
480 4.72194
485 4.25409
490 4.29228
495 4.10975
500 3.79296
505 3.72606
510 3.74094
515 3.49697
520 3.35956
525 3.20793
530 3.23537
535 3.14117
540 3.01859
545 2.86814
550 3.13634
555 2.93035
560 2.80756
565 2.89168
570 2.87324
575 2.90481
580 2.88287
585 2.76056
590 2.74031
595 2.61521
600 2.40729
Ex : 373
200 1.11524
205 1.14817
210 1.20328
215 1.23758
220 1.03989
225 1.244
230 1.21437
235 1.28478
240 1.31231
245 1.32125
250 1.46002
255 1.44637
260 1.54786
265 1.46088
270 1.46218
275 1.82068
280 1.8865
285 1.79671
290 1.77512
295 2.19286
300 2.10654
305 2.44846
310 2.72193
315 3.06738
320 3.71068
325 4.19515
330 5.15974
335 6.18481
340 7.78499
345 10.3238
350 15.6611
355 25.7704
360 855.412
365 9999.9
370 9999.9
375 4581.86
380 563.211
385 88.1485
390 27.2292
395 17.0259
400 13.6086
405 10.8859
410 11.0934
415 12.2635
420 12.4424
425 10.9177
430 8.38136
435 6.91167
440 7
445 6.39579
450 5.89859
455 5.75318
460 5.54958
465 5.36736
470 5.23264
475 5.02989
480 4.57552
485 4.52382
490 4.19245
495 4.19712
500 3.683
505 3.77292
510 3.75981
515 3.65935
520 3.50096
525 3.16094
530 3.16841
535 3.09335
540 2.9231
545 2.87681
550 2.97596
555 2.8988
560 2.74191
565 2.66793
570 2.60337
575 2.45175
580 2.53263
585 2.4202
590 2.37745
595 2.43488
600 2.82184
Ex : 378
200 1.0835
205 1.15472
210 1.23919
215 1.22285
220 1.26982
225 1.12473
230 1.11062
235 1.25673
240 1.21426
245 1.25242
250 1.33768
255 1.33071
260 1.33225
265 1.26233
270 1.58149
275 1.54786
280 1.72539
285 1.92002
290 1.8968
295 1.97794
300 2.28096
305 2.32775
310 2.51005
315 2.74199
320 3.10477
325 3.50419
330 4.22063
335 5.0319
340 6.30921
345 7.64567
350 10.7615
355 15.7472
360 26.0937
365 836.572
370 9999.9
375 9999.9
380 4699.57
385 577.546
390 90.5744
395 27.5333
400 16.5268
405 13.0951
410 10.4151
415 10.4306
420 11.2029
425 11.8326
430 11.3417
435 8.80311
440 7.41124
445 6.63627
450 6.43767
455 5.83705
460 5.61478
465 5.43875
470 5.14509
475 5.02084
480 4.55774
485 4.4169
490 4.18983
495 4.02295
500 3.81789
505 3.57188
510 3.50697
515 3.2592
520 3.23506
525 3.12854
530 2.95696
535 2.89513
540 2.9341
545 2.75991
550 2.66904
555 2.58632
560 2.64361
565 2.57025
570 2.69517
575 2.46667
580 2.37482
585 2.24885
590 2.42589
595 2.30726
600 1.97628
Ex : 383
200 1.01974
205 1.1023
210 1.12398
215 1.18464
220 1.17501
225 1.2136
230 1.20941
235 1.18218
240 1.1343
245 1.21247
250 1.23755
255 1.24015
260 1.41823
265 1.47506
270 1.47905
275 1.41532
280 1.57572
285 1.74608
290 1.74386
295 1.83386
300 1.96213
305 2.18404
310 2.33673
315 2.58434
320 2.73254
325 3.08606
330 3.62004
335 4.21735
340 5.05803
345 6.37969
350 7.87745
355 10.7363
360 15.7933
365 26.2107
370 794.462
375 9999.9
380 9999.9
385 4958.58
390 608.703
395 94.2214
400 27.8331
405 16.7983
410 12.9292
415 10.2106
420 9.49414
425 10.54
430 11.1486
435 11.2138
440 9.64107
445 7.46536
450 6.45958
455 6.13768
460 5.65272
465 5.54482
470 5.11819
475 4.8883
480 4.76669
485 4.36569
490 4.28973
495 3.73834
500 3.84934
505 3.67294
510 3.19904
515 3.3176
520 3.07882
525 3.16455
530 2.91202
535 2.89827
540 2.89673
545 2.78253
550 2.61962
555 2.53753
560 2.58992
565 2.55244
570 2.36306
575 2.25388
580 2.25325
585 2.16748
590 2.11047
595 2.07485
600 1.97454
Ex : 388
200 0.9862
205 1.04657
210 1.06911
215 1.17976
220 1.09119
225 1.12721
230 1.19269
235 1.22159
240 1.14271
245 1.28038
250 1.12204
255 1.19025
260 1.3218
265 1.45141
270 1.35798
275 1.43635
280 1.56997
285 1.63641
290 1.6612
295 1.73554
300 1.90192
305 2.20681
310 2.15536
315 2.41709
320 2.47351
325 3.10257
330 3.21664
335 3.70622
340 4.59432
345 5.35944
350 6.53108
355 8.05486
360 10.9187
365 16.1912
370 27.0293
375 872.706
380 9999.9
385 9999.9
390 5107.2
395 625.114
400 95.9626
405 27.9317
410 16.4375
415 13.195
420 10.1661
425 9.15423
430 9.65037
435 10.9796
440 10.9168
445 9.55054
450 7.56585
455 6.48527
460 6.23814
465 5.96575
470 5.27735
475 5.02477
480 4.72125
485 4.37345
490 4.19168
495 4.08961
500 3.76914
505 3.59663
510 3.53235
515 3.40475
520 3.34237
525 3.08818
530 2.93636
535 2.77642
540 2.86843
545 2.80883
550 2.60475
555 2.44586
560 2.49243
565 2.46905
570 2.26688
575 2.27629
580 2.16381
585 2.10435
590 2.04939
595 2.08002
600 2.46721
Ex : 393
200 1.16477
205 1.04483
210 1.14447
215 1.12121
220 1.19508
225 1.13973
230 1.22013
235 1.2387
240 1.21276
245 1.14191
250 1.2677
255 1.27857
260 1.26807
265 1.38635
270 1.39414
275 1.5383
280 1.54332
285 1.57378
290 1.72814
295 1.76315
300 1.85252
305 1.91983
310 2.14861
315 2.43393
320 2.62532
325 2.76239
330 3.02272
335 3.3255
340 3.96571
345 4.39182
350 5.32721
355 6.42813
360 8.2413
365 11.4831
370 16.6209
375 27.1265
380 800.853
385 9999.9
390 9999.9
395 5399.25
400 661.064
405 99.8176
410 28.6742
415 16.3186
420 12.6279
425 9.72774
430 8.93953
435 9.30568
440 10.6654
445 10.6014
450 10.1535
455 8.19399
460 6.73414
465 5.97951
470 5.54061
475 5.15557
480 4.90925
485 4.63901
490 4.25499
495 3.99242
500 3.885
505 3.53394
510 3.3996
515 3.28336
520 3.14529
525 3.19792
530 2.95708
535 2.85617
540 2.78012
545 2.69852
550 2.60621
555 2.57236
560 2.32916
565 2.24874
570 2.32258
575 2.12613
580 2.13934
585 1.94334
590 1.88877
595 1.89767
600 1.69469
Ex : 398
200 1.08497
205 1.01164
210 1.10951
215 1.23431
220 1.11581
225 1.18878
230 1.1946
235 1.17165
240 1.14001
245 1.20823
250 1.25087
255 1.30831
260 1.28234
265 1.44249
270 1.35038
275 1.45127
280 1.5423
285 1.5346
290 1.7294
295 1.71251
300 1.88743
305 2.00941
310 2.04062
315 2.17864
320 2.25942
325 2.54518
330 2.94441
335 3.19297
340 3.41292
345 4.13215
350 4.63776
355 5.65179
360 6.60316
365 8.50368
370 11.4386
375 16.2823
380 27.4174
385 860.403
390 9999.9
395 9999.9
400 5546.51
405 676.642
410 101.066
415 28.3181
420 16.6449
425 12.5166
430 9.6031
435 8.38188
440 8.59415
445 10.0626
450 10.4829
455 10.0045
460 8.52279
465 7.02259
470 5.94231
475 5.40655
480 5.0021
485 4.49824
490 4.40039
495 4.27159
500 3.82532
505 3.78235
510 3.58859
515 3.50346
520 3.37935
525 2.95587
530 2.94411
535 2.85046
540 2.77107
545 2.69684
550 2.65336
555 2.46021
560 2.5515
565 2.41155
570 2.24696
575 1.94645
580 2.03061
585 1.94426
590 1.99742
595 1.93076
600 2.32199
Ex : 403
200 1.01398
205 1.06484
210 1.13699
215 1.03409
220 1.19726
225 1.14808
230 1.08883
235 1.14583
240 1.24843
245 1.17134
250 1.21828
255 1.27936
260 1.19029
265 1.20835
270 1.30115
275 1.48702
280 1.43499
285 1.45521
290 1.60867
295 1.77089
300 1.73705
305 1.78239
310 1.92085
315 2.11363
320 2.18863
325 2.56171
330 2.78207
335 2.99513
340 3.30959
345 3.64407
350 3.9515
355 4.87115
360 5.63196
365 7.08217
370 8.75662
375 11.5776
380 16.651
385 29.2384
390 934.421
395 9999.9
400 9999.9
405 5684.18
410 692.39
415 103.504
420 28.5549
425 16.6182
430 12.6235
435 9.931
440 8.38134
445 8.38606
450 9.68296
455 10.1795
460 9.48683
465 9.12887
470 7.00304
475 6.02961
480 5.26941
485 4.91818
490 4.50298
495 4.16519
500 4.11031
505 3.82041
510 3.53787
515 3.53105
520 3.28688
525 3.24282
530 2.98909
535 2.97579
540 2.8147
545 2.81331
550 2.61278
555 2.80252
560 2.37479
565 2.32112
570 2.26307
575 2.10782
580 2.02166
585 1.91297
590 1.85846
595 1.86878
600 1.96774
Ex : 408
200 0.999934
205 1.0215
210 1.06393
215 1.03453
220 1.0057
225 1.0305
230 1.06161
235 1.06931
240 1.08281
245 1.14892
250 1.1387
255 1.20722
260 1.35449
265 1.32065
270 1.21483
275 1.3578
280 1.48231
285 1.56482
290 1.61761
295 1.53184
300 1.63536
305 1.72626
310 1.95539
315 2.06907
320 2.20296
325 2.33457
330 2.6114
335 2.77751
340 3.04272
345 3.41951
350 3.7555
355 4.14647
360 4.72238
365 5.81396
370 7.26978
375 9.13049
380 11.866
385 17.6743
390 29.8374
395 926.809
400 9999.9
405 9999.9
410 5494.54
415 671.133
420 100.131
425 27.9931
430 16.4777
435 12.7098
440 9.56139
445 8.46462
450 8.17344
455 9.16916
460 10.1784
465 9.71593
470 8.93018
475 7.14411
480 5.79208
485 5.05725
490 4.73664
495 4.37357
500 4.07135
505 3.92802
510 3.59691
515 3.41741
520 3.37578
525 3.24017
530 3.00063
535 3.11399
540 2.83401
545 2.75765
550 2.894
555 2.64101
560 2.4225
565 2.36097
570 2.25429
575 2.12572
580 1.89467
585 1.90331
590 1.94057
595 1.76843
600 2.1319
Ex : 413
200 0.932684
205 0.955615
210 1.05606
215 1.02329
220 1.05937
225 1.05372
230 1.17625
235 1.07248
240 1.122
245 1.10293
250 1.13984
255 1.20231
260 1.14272
265 1.26489
270 1.26833
275 1.39593
280 1.26944
285 1.45366
290 1.49856
295 1.47564
300 1.65203
305 1.73209
310 1.95262
315 2.01757
320 2.1228
325 2.22636
330 2.29549
335 2.53951
340 2.94731
345 3.22297
350 3.43826
355 3.89517
360 4.30802
365 4.92027
370 5.95034
375 7.25768
380 9.01838
385 12.7881
390 19.3246
395 32.0866
400 1066.62
405 9999.9
410 9999.9
415 5437.53
420 662.217
425 99.5552
430 28.0186
435 16.692
440 12.8156
445 9.91047
450 8.59431
455 7.99747
460 8.46852
465 9.81649
470 9.46078
475 8.84811
480 7.30588
485 5.731
490 4.94744
495 4.41784
500 4.23222
505 4.08324
510 3.7048
515 3.52148
520 3.32094
525 3.2806
530 3.18913
535 2.97858
540 2.70154
545 2.65172
550 2.57206
555 2.42034
560 2.48804
565 2.32481
570 2.2859
575 2.10723
580 2.02364
585 2.01954
590 1.81471
595 1.83469
600 1.89975
Ex : 418
200 0.91963
205 1.06442
210 1.03027
215 0.998132
220 1.03857
225 1.03505
230 1.05043
235 1.02843
240 1.05104
245 1.15059
250 1.2304
255 1.21783
260 1.21825
265 1.28227
270 1.34683
275 1.37824
280 1.31039
285 1.49675
290 1.52797
295 1.48941
300 1.581
305 1.79196
310 1.81817
315 1.81522
320 2.02135
325 1.97079
330 2.32318
335 2.39433
340 2.53072
345 2.95134
350 3.20171
355 3.53914
360 3.97662
365 4.26539
370 5.10703
375 6.05528
380 7.26968
385 9.77113
390 13.0237
395 18.9889
400 31.4276
405 985.566
410 9999.9
415 9999.9
420 5668.42
425 688.881
430 102.067
435 28.0159
440 16.6063
445 12.9878
450 9.99332
455 8.65905
460 8.16514
465 8.3534
470 9.35448
475 9.01846
480 8.67495
485 7.50292
490 5.95833
495 4.83784
500 4.57648
505 4.0605
510 3.77723
515 3.67097
520 3.66564
525 3.36022
530 3.16541
535 2.99695
540 2.93147
545 2.71665
550 2.70155
555 2.71206
560 2.51555
565 2.39312
570 2.25675
575 2.19742
580 2.08477
585 1.9443
590 1.82006
595 1.76591
600 1.58353
Ex : 423
200 0.970864
205 1.05111
210 1.07168
215 1.03755
220 1.06126
225 1.03505
230 1.05081
235 1.03986
240 1.03782
245 1.08444
250 1.1831
255 1.09349
260 1.17331
265 1.3301
270 1.24587
275 1.27679
280 1.28395
285 1.36736
290 1.40863
295 1.46567
300 1.57274
305 1.63754
310 1.73827
315 1.8279
320 1.92039
325 1.97821
330 2.25706
335 2.33116
340 2.35165
345 2.75606
350 3.10101
355 3.30734
360 3.59235
365 3.97087
370 4.51311
375 5.2036
380 6.02
385 7.74451
390 10.0225
395 13.5373
400 19.9122
405 32.6256
410 1061.05
415 9999.9
420 9999.9
425 5587.54
430 681.402
435 102.059
440 28.7538
445 17.1899
450 13.3207
455 9.84169
460 8.74547
465 8.37852
470 7.83562
475 8.60561
480 8.89833
485 8.28155
490 7.50773
495 6.17647
500 4.79855
505 4.39004
510 4.12331
515 3.83015
520 3.55294
525 3.34852
530 3.11559
535 3.10452
540 2.86639
545 2.6866
550 2.72611
555 2.52775
560 2.53697
565 2.32009
570 2.16927
575 2.06912
580 1.92734
585 1.92409
590 1.89042
595 1.6681
600 1.83716
Ex : 428
200 0.888882
205 0.999168
210 1.04063
215 1.10558
220 1.09019
225 1.0578
230 1.02626
235 1.04272
240 1.07627
245 1.11983
250 1.07028
255 1.13293
260 1.29225
265 1.3042
270 1.33999
275 1.25749
280 1.34981
285 1.39816
290 1.36345
295 1.54185
300 1.57652
305 1.57938
310 1.63139
315 1.72724
320 1.86225
325 2.00348
330 2.11992
335 2.25118
340 2.37069
345 2.52976
350 2.72268
355 3.01316
360 3.38056
365 3.52652
370 4.08515
375 4.85103
380 5.40473
385 6.45446
390 8.13082
395 10.2012
400 13.8274
405 20.2915
410 33.1352
415 1159.48
420 9999.9
425 9999.9
430 5747.36
435 699.436
440 104.203
445 29.5463
450 17.6484
455 13.3909
460 10.4402
465 9.2522
470 8.28577
475 7.69143
480 8.03865
485 8.64225
490 7.9756
495 7.07945
500 6.48633
505 5.11305
510 4.27899
515 3.92885
520 3.61171
525 3.61228
530 3.07988
535 2.97793
540 2.95358
545 2.90131
550 2.78142
555 2.59353
560 2.46016
565 2.29482
570 2.17627
575 2.07021
580 1.98035
585 1.75691
590 1.67921
595 1.77433
600 1.57218
Ex : 433
200 0.991217
205 0.923922
210 1.05899
215 0.958279
220 1.03035
225 0.991161
230 1.01299
235 1.10923
240 1.015
245 1.09274
250 1.15737
255 1.14793
260 1.19366
265 1.25253
270 1.20218
275 1.29742
280 1.35657
285 1.45915
290 1.48739
295 1.37511
300 1.50763
305 1.56819
310 1.67287
315 1.68376
320 1.62909
325 1.91359
330 2.03841
335 2.12289
340 2.33946
345 2.54272
350 2.77365
355 2.85905
360 3.03597
365 3.42944
370 3.47529
375 4.27914
380 4.86539
385 5.58286
390 6.64144
395 8.25769
400 10.4172
405 14.1324
410 21.0878
415 35.3756
420 1256.31
425 9999.9
430 9999.9
435 5498.88
440 669.314
445 102.251
450 29.6071
455 17.7331
460 13.6567
465 10.7846
470 8.76296
475 8.00921
480 7.70734
485 7.74516
490 8.4842
495 7.73976
500 7.27855
505 6.46684
510 5.09888
515 4.23629
520 3.69682
525 3.52978
530 3.33678
535 3.22953
540 3.07223
545 2.95399
550 2.87262
555 2.74851
560 2.52427
565 2.52521
570 2.19808
575 2.1559
580 2.09687
585 2.07331
590 1.76307
595 1.71509
600 1.4025
Ex : 438
200 1.01694
205 0.998038
210 1.02801
215 1.03356
220 1.07734
225 0.914718
230 1.11674
235 1.03092
240 1.11422
245 1.07831
250 1.09007
255 1.25446
260 1.13374
265 1.173
270 1.24421
275 1.24273
280 1.38847
285 1.33416
290 1.38923
295 1.54182
300 1.53576
305 1.53432
310 1.64092
315 1.73555
320 1.80573
325 1.8956
330 1.89436
335 2.06291
340 2.16203
345 2.36934
350 2.75351
355 2.60598
360 2.9613
365 3.27944
370 3.66653
375 3.69091
380 4.4694
385 4.85678
390 5.72151
395 6.82614
400 8.25224
405 10.6865
410 14.3427
415 20.9765
420 33.8138
425 1190.4
430 9999.9
435 9999.9
440 5735.54
445 698.959
450 105.621
455 30.2027
460 18.1945
465 14.1589
470 10.5762
475 8.43031
480 7.81462
485 7.46946
490 7.31987
495 7.88186
500 7.85936
505 6.90673
510 6.298
515 5.53759
520 4.32644
525 3.88047
530 3.37129
535 3.12967
540 3.0342
545 3.01384
550 2.88586
555 2.56674
560 2.64904
565 2.44448
570 2.24405
575 2.11693
580 1.92326
585 1.88396
590 1.74258
595 1.79898
600 1.2353
Ex : 443
200 0.982559
205 1.05023
210 1.00132
215 1.05391
220 1.02291
225 1.05077
230 1.12771
235 1.11077
240 1.08802
245 1.12664
250 1.06941
255 1.11496
260 1.10541
265 1.18701
270 1.2809
275 1.32287
280 1.40952
285 1.47479
290 1.47774
295 1.54114
300 1.55043
305 1.47551
310 1.69018
315 1.61021
320 1.8783
325 1.87404
330 2.06395
335 2.02103
340 2.18206
345 2.37479
350 2.55355
355 2.5889
360 3.00881
365 3.09488
370 3.21473
375 3.60755
380 4.04188
385 4.59153
390 5.1854
395 6.02043
400 7.07582
405 8.48363
410 11.0568
415 14.9426
420 21.3383
425 34.7594
430 1304.43
435 9999.9
440 9999.9
445 5609.27
450 683.838
455 104.54
460 31.0342
465 19.0813
470 13.8968
475 10.2771
480 8.51964
485 7.62903
490 7.29366
495 7.2024
500 7.52585
505 7.39764
510 6.5133
515 6.20891
520 5.50308
525 4.45775
530 3.621
535 3.36224
540 3.42568
545 3.03125
550 2.81234
555 2.63227
560 2.69053
565 2.55384
570 2.33445
575 2.0612
580 1.94826
585 1.83655
590 1.8156
595 1.73083
600 1.49199
Ex : 448
200 1.0902
205 1.09151
210 1.09157
215 1.02031
220 1.11406
225 1.08022
230 1.04246
235 1.16474
240 1.18204
245 1.22141
250 1.02988
255 1.07571
260 1.2397
265 1.21615
270 1.21036
275 1.19267
280 1.35439
285 1.33994
290 1.44592
295 1.5229
300 1.59768
305 1.60688
310 1.57274
315 1.58328
320 1.6605
325 1.81289
330 1.91613
335 2.02518
340 2.09857
345 2.28103
350 2.46081
355 2.59961
360 2.68421
365 2.89488
370 3.13712
375 3.51508
380 3.97911
385 4.17563
390 4.61918
395 5.21513
400 6.09524
405 6.97927
410 8.56148
415 11.2136
420 15.2133
425 21.7165
430 34.7178
435 1359.78
440 9999.9
445 9999.9
450 5681.56
455 691.917
460 105.837
465 32.6182
470 18.7914
475 13.298
480 9.66177
485 8.21715
490 7.7515
495 7.04644
500 6.82796
505 7.02474
510 7.4156
515 6.53053
520 6.32576
525 5.52352
530 4.58883
535 3.78691
540 3.50734
545 3.34336
550 2.86919
555 2.82028
560 2.77598
565 2.69217
570 2.41795
575 2.23268
580 2.15549
585 1.98598
590 1.85296
595 1.76917
600 1.75029
Ex : 453
200 0.997477
205 1.11069
210 1.05152
215 1.05681
220 1.22006
225 1.11258
230 1.12195
235 1.09543
240 1.08933
245 1.19776
250 1.20499
255 1.15769
260 1.22259
265 1.2558
270 1.22234
275 1.28243
280 1.17813
285 1.39155
290 1.49535
295 1.52055
300 1.54712
305 1.49918
310 1.52648
315 1.65106
320 1.75194
325 1.86413
330 1.79684
335 2.08593
340 1.94153
345 2.0599
350 2.42152
355 2.48136
360 2.67045
365 3.00599
370 3.0695
375 3.00617
380 3.38294
385 3.89714
390 4.21642
395 4.72291
400 5.37435
405 6.23599
410 7.32949
415 8.90811
420 11.0103
425 14.5249
430 21.0441
435 34.3032
440 1420.34
445 9999.9
450 9999.9
455 5425.78
460 663.94
465 103.961
470 30.7559
475 17.7677
480 13.2495
485 9.51137
490 7.99673
495 7.32108
500 6.79839
505 6.43114
510 6.43784
515 6.70213
520 6.4152
525 5.84335
530 5.44637
535 4.58357
540 3.83385
545 3.26313
550 3.12105
555 2.83022
560 2.77421
565 2.75007
570 2.64324
575 2.30026
580 2.05015
585 2.06315
590 2.07678
595 1.79621
600 1.56834
Ex : 458
200 1.02149
205 1.00639
210 1.10352
215 1.16535
220 1.11724
225 1.14714
230 1.0995
235 1.07309
240 1.08778
245 1.21959
250 1.1817
255 1.12882
260 1.1621
265 1.1498
270 1.2352
275 1.31663
280 1.27687
285 1.38994
290 1.43864
295 1.49955
300 1.51829
305 1.70083
310 1.64173
315 1.60341
320 1.81634
325 1.83656
330 1.92449
335 2.02406
340 2.15257
345 2.15509
350 2.38044
355 2.39441
360 2.57451
365 2.95254
370 3.02935
375 3.14985
380 3.43196
385 3.79254
390 4.06151
395 4.63335
400 4.9719
405 5.6537
410 6.49804
415 7.38152
420 9.0771
425 11.4861
430 14.8452
435 22.175
440 37.3061
445 1576.33
450 9999.9
455 9999.9
460 5896.42
465 722.044
470 111.051
475 31.415
480 18.2105
485 13.2905
490 9.77442
495 8.05932
500 7.26403
505 7.03541
510 6.64939
515 6.16704
520 6.47821
525 6.61156
530 5.79832
535 5.47021
540 4.89849
545 4.05845
550 3.45832
555 3.23869
560 2.95534
565 2.98731
570 2.72334
575 2.51569
580 2.21087
585 2.18922
590 2.06961
595 1.90826
600 1.86189
Ex : 463
200 1.00234
205 1.03114
210 1.12293
215 1.06698
220 1.14543
225 1.25185
230 1.13956
235 1.0926
240 1.17868
245 1.12299
250 1.12275
255 1.16353
260 1.27017
265 1.2411
270 1.3049
275 1.28005
280 1.34985
285 1.40967
290 1.38786
295 1.68568
300 1.62051
305 1.59267
310 1.7238
315 1.81221
320 1.7749
325 1.86178
330 1.95109
335 2.07248
340 2.08763
345 2.2372
350 2.4011
355 2.42646
360 2.61433
365 2.68168
370 2.89871
375 3.21443
380 3.26951
385 3.56466
390 4.08848
395 4.29524
400 4.7577
405 4.94304
410 5.74871
415 6.37648
420 7.33143
425 8.74691
430 10.8898
435 15.2304
440 22.6239
445 37.8302
450 1548.99
455 9999.9
460 9999.9
465 6047.81
470 738.584
475 110.977
480 31.1111
485 17.7899
490 12.9582
495 9.29376
500 7.64782
505 7.07609
510 6.98958
515 6.5887
520 5.77918
525 6.05368
530 6.43607
535 5.65645
540 5.19439
545 4.87096
550 4.31629
555 3.28276
560 3.06635
565 2.96946
570 2.85243
575 2.60383
580 2.39242
585 2.26766
590 2.14074
595 1.99739
600 2.25636
Ex : 468
200 1.12005
205 1.1072
210 1.08471
215 1.14932
220 1.11647
225 1.21713
230 1.42962
235 1.23316
240 1.20382
245 1.21994
250 1.11016
255 1.18132
260 1.4134
265 1.1963
270 1.13004
275 1.2061
280 1.34485
285 1.3539
290 1.41451
295 1.47084
300 1.43116
305 1.47257
310 1.74613
315 1.71506
320 1.81146
325 1.89261
330 1.80626
335 1.98396
340 2.03255
345 2.1682
350 2.18813
355 2.37669
360 2.38903
365 2.66169
370 2.67508
375 2.97509
380 3.18354
385 3.37961
390 3.67639
395 3.9068
400 4.22613
405 4.78137
410 4.90615
415 5.50976
420 6.25147
425 7.38407
430 8.64872
435 11.5922
440 15.2323
445 22.51
450 37.319
455 1654.16
460 9999.9
465 9999.9
470 6100.14
475 738.106
480 109.73
485 30.0099
490 17.3823
495 12.2658
500 9.15596
505 7.47911
510 6.99271
515 6.6945
520 6.46294
525 5.94293
530 5.76589
535 6.24382
540 5.7598
545 4.78368
550 4.64342
555 4.19764
560 3.43778
565 3.04794
570 2.85618
575 2.60129
580 2.53847
585 2.14668
590 2.14534
595 1.87409
600 1.86003
Ex : 473
200 1.20256
205 1.20371
210 1.15336
215 1.12226
220 1.16193
225 1.14524
230 1.57207
235 1.47499
240 1.16542
245 1.1433
250 1.14374
255 1.33454
260 1.21654
265 1.20194
270 1.32813
275 1.29277
280 1.38916
285 1.51717
290 1.43277
295 1.46001
300 1.43422
305 1.63855
310 1.68634
315 1.63515
320 1.85826
325 1.9912
330 1.94342
335 1.83504
340 1.98373
345 2.07307
350 2.22239
355 2.40269
360 2.5059
365 2.53863
370 2.67308
375 2.82438
380 3.152
385 3.45394
390 3.4964
395 3.84882
400 4.06981
405 4.48916
410 4.62358
415 5.10605
420 5.55866
425 6.50891
430 7.56197
435 8.95945
440 11.4951
445 16.1678
450 22.9375
455 38.9602
460 1785.86
465 9999.9
470 9999.9
475 5916.36
480 718.008
485 107.308
490 29.9512
495 16.7143
500 12.3887
505 9.16457
510 7.72222
515 7.14408
520 6.7937
525 6.28323
530 5.7486
535 5.52272
540 5.54868
545 5.75601
550 5.05962
555 4.4976
560 4.19786
565 3.6018
570 3.11155
575 2.6812
580 2.63677
585 2.35319
590 2.15004
595 2.06518
600 1.01263
Ex : 478
200 1.15773
205 1.08104
210 1.16314
215 1.14679
220 1.1836
225 1.18414
230 1.42252
235 1.99409
240 1.40811
245 1.22412
250 1.38283
255 1.27289
260 1.33535
265 1.33798
270 1.33246
275 1.38538
280 1.4277
285 1.4252
290 1.46121
295 1.45828
300 1.41037
305 1.49305
310 1.63733
315 1.63513
320 1.79341
325 1.96464
330 1.94246
335 2.1182
340 2.07693
345 2.17963
350 2.25376
355 2.39252
360 2.53156
365 2.70824
370 2.65545
375 3.02068
380 3.2541
385 3.60885
390 3.6982
395 3.87953
400 4.10624
405 4.77329
410 4.84579
415 5.12814
420 5.57743
425 6.31831
430 7.06315
435 8.32888
440 10.1668
445 13.6025
450 18.4058
455 26.784
460 46.2429
465 2020.91
470 9999.9
475 9999.9
480 6245.15
485 758.819
490 113.593
495 31.2988
500 18.1701
505 12.978
510 9.91484
515 8.19971
520 7.81619
525 7.19656
530 6.71936
535 5.95655
540 5.50203
545 5.69364
550 5.69328
555 5.08972
560 4.83433
565 4.34706
570 3.74265
575 3.2706
580 2.79758
585 2.47813
590 2.33598
595 2.27987
600 4.47028
Ex : 483
200 1.20832
205 1.24081
210 1.27372
215 1.19203
220 1.20298
225 1.20719
230 1.32115
235 2.22715
240 1.61824
245 1.44576
250 1.31923
255 1.29117
260 1.25409
265 1.42432
270 1.3387
275 1.37167
280 1.41647
285 1.39783
290 1.33745
295 1.40006
300 1.45604
305 1.51552
310 1.63489
315 1.67073
320 1.80003
325 2.00016
330 1.9317
335 2.20479
340 2.14566
345 2.17814
350 2.10791
355 2.50501
360 2.48057
365 2.51429
370 2.98555
375 3.08974
380 2.89608
385 3.43752
390 3.48419
395 3.68887
400 4.09926
405 4.33586
410 4.61311
415 4.94661
420 5.25153
425 5.79899
430 6.34416
435 7.27605
440 8.37219
445 10.6242
450 13.7201
455 18.737
460 28.2889
465 48.6959
470 1657.99
475 9999.9
480 9999.9
485 6616.82
490 802.469
495 118.621
500 31.6817
505 18.4024
510 13.0301
515 9.87718
520 8.22782
525 7.19012
530 6.68205
535 6.60752
540 6.10989
545 5.62486
550 5.30168
555 5.45092
560 5.17783
565 4.70919
570 4.1401
575 3.71262
580 3.23309
585 2.74462
590 2.59852
595 2.19393
600 2.32591
Ex : 488
200 1.24462
205 1.17064
210 1.23718
215 1.12834
220 1.13073
225 1.30959
230 1.28635
235 1.8202
240 2.43326
245 1.59904
250 1.39181
255 1.31641
260 1.52338
265 1.40226
270 1.38683
275 1.38404
280 1.48725
285 1.4768
290 1.58144
295 1.55596
300 1.59776
305 1.65062
310 1.66364
315 1.79111
320 1.89585
325 1.96936
330 2.00735
335 1.97464
340 2.16804
345 2.29672
350 2.1281
355 2.46092
360 2.52965
365 2.73334
370 2.82
375 2.88105
380 3.03862
385 3.35742
390 3.6314
395 3.78067
400 4.14836
405 4.2964
410 4.6525
415 5.09068
420 5.41512
425 5.69283
430 6.21403
435 6.90113
440 7.829
445 9.291
450 11.3284
455 15.1192
460 20.7173
465 32.1022
470 49.0605
475 1981.47
480 9999.9
485 9999.9
490 6376.7
495 775.202
500 116.876
505 32.7017
510 19.3007
515 13.7505
520 10.115
525 8.48094
530 7.57549
535 7.35904
540 7.05756
545 6.15052
550 5.61162
555 5.30518
560 5.3184
565 4.9401
570 4.28787
575 4.12753
580 3.56161
585 3.18214
590 2.80044
595 2.51847
600 2.29654
Ex : 493
200 1.27944
205 1.24314
210 1.15125
215 1.18123
220 1.27571
225 1.36641
230 1.21054
235 1.26649
240 2.61181
245 2.13646
250 1.53835
255 1.35761
260 1.38262
265 1.39289
270 1.42107
275 1.54037
280 1.64294
285 1.47488
290 1.4405
295 1.46848
300 1.64364
305 1.65645
310 1.58551
315 1.6439
320 1.83674
325 1.85908
330 1.96381
335 2.06455
340 2.19373
345 2.27522
350 2.2133
355 2.24646
360 2.4166
365 2.53093
370 2.80233
375 3.05574
380 2.97869
385 3.15945
390 3.31288
395 3.47139
400 3.80043
405 3.97512
410 4.41154
415 4.7596
420 4.92104
425 5.02465
430 5.45087
435 6.25786
440 6.98307
445 8.1355
450 9.44341
455 11.7973
460 15.812
465 21.9333
470 30.4655
475 47.3776
480 1913.62
485 9999.9
490 9999.9
495 6514.28
500 788.964
505 117.345
510 32.5062
515 18.868
520 13.7924
525 10.1319
530 8.38787
535 7.52592
540 7.08361
545 6.76623
550 6.32219
555 5.76978
560 5.21665
565 5.06307
570 4.91074
575 4.21561
580 3.7064
585 3.56819
590 2.95959
595 2.85668
600 2.15326
Ex : 498
200 1.29722
205 1.16265
210 1.33633
215 1.38225
220 1.27662
225 1.28861
230 1.2038
235 1.24401
240 1.99528
245 3.12939
250 1.61299
255 1.40573
260 1.43404
265 1.42483
270 1.39315
275 1.55777
280 1.5465
285 1.58446
290 1.48343
295 1.65021
300 1.73273
305 1.74753
310 1.72731
315 1.77488
320 1.72933
325 1.73685
330 1.86114
335 2.15761
340 2.12527
345 2.24241
350 2.48285
355 2.31069
360 2.34497
365 2.55609
370 2.72633
375 2.85306
380 3.00902
385 3.07652
390 3.25105
395 3.72829
400 3.8997
405 4.18344
410 4.27467
415 4.27959
420 4.73966
425 5.1628
430 5.66956
435 5.89642
440 6.43777
445 7.49444
450 8.54401
455 10.0435
460 12.7985
465 17.6942
470 21.997
475 30.582
480 49.647
485 2267.3
490 9999.9
495 9999.9
500 6349.74
505 770.941
510 116.773
515 32.6745
520 19.2786
525 13.6974
530 10.0293
535 8.79817
540 7.62959
545 7.15604
550 6.8657
555 6.18829
560 5.83075
565 5.40134
570 4.82998
575 4.95923
580 4.26891
585 3.70257
590 3.33432
595 3.08365
600 2.27102
Ex : 503
200 1.29162
205 1.3722
210 1.31475
215 1.31459
220 1.26671
225 1.32587
230 1.30329
235 1.37225
240 1.44962
245 3.20004
250 2.57845
255 1.46512
260 1.44451
265 1.41616
270 1.52931
275 1.40662
280 1.53339
285 1.48504
290 1.65426
295 1.55659
300 1.68031
305 1.71735
310 1.73916
315 1.67708
320 1.70697
325 1.69388
330 1.99924
335 1.93481
340 2.21568
345 2.33411
350 2.26107
355 2.28561
360 2.53412
365 2.56501
370 2.60951
375 2.75933
380 2.82566
385 3.19525
390 3.30024
395 3.64524
400 3.89484
405 4.02322
410 4.22452
415 4.38637
420 4.61141
425 4.98393
430 5.29439
435 5.33394
440 5.88844
445 6.8903
450 8.13577
455 9.19456
460 11.1678
465 14.0097
470 17.2804
475 22.4076
480 32.4806
485 50.8535
490 2115.86
495 9999.9
500 9999.9
505 6614.96
510 803.631
515 121.48
520 33.8477
525 19.1597
530 14.1418
535 10.5741
540 8.48175
545 7.71956
550 7.24452
555 6.95214
560 6.51888
565 5.6386
570 5.42497
575 4.83303
580 4.4856
585 4.32172
590 3.49578
595 2.97158
600 3.44701
Ex : 508
200 1.2395
205 1.37943
210 1.23728
215 1.32385
220 1.42456
225 1.39062
230 1.35689
235 1.393
240 1.296
245 2.32226
250 4.01613
255 1.98799
260 1.56236
265 1.48192
270 1.35547
275 1.46398
280 1.56102
285 1.56189
290 1.62974
295 1.56823
300 1.59074
305 1.65394
310 1.75363
315 1.63971
320 1.81518
325 1.91968
330 1.90542
335 1.9415
340 2.06065
345 2.1678
350 2.20412
355 2.48495
360 2.31855
365 2.47719
370 2.44251
375 2.67631
380 3.0143
385 3.04278
390 3.36031
395 3.30424
400 3.46495
405 3.94804
410 4.18173
415 4.36031
420 4.29567
425 4.71738
430 4.93806
435 5.41047
440 5.79121
445 6.56005
450 6.97526
455 8.21246
460 9.48398
465 11.7246
470 13.5399
475 17.3586
480 22.238
485 31.7548
490 52.076
495 2243.3
500 9999.9
505 9999.9
510 7199.26
515 870.719
520 128.318
525 34.7327
530 19.6213
535 14.0874
540 10.4048
545 8.6532
550 7.76014
555 7.58092
560 6.88025
565 6.64645
570 6.05264
575 5.03464
580 4.6906
585 4.26352
590 3.74337
595 3.55707
600 3.25409
Ex : 513
200 1.31638
205 1.33134
210 1.26111
215 1.19773
220 1.23961
225 1.35406
230 1.30076
235 1.19461
240 1.27111
245 1.53845
250 6.22537
255 4.83448
260 1.81639
265 1.39501
270 1.49762
275 1.61155
280 1.40698
285 1.4608
290 1.62807
295 1.70496
300 1.69825
305 1.62505
310 1.80412
315 1.74845
320 1.84952
325 1.97006
330 1.88494
335 1.97792
340 2.15509
345 2.2759
350 2.25923
355 2.2626
360 2.35647
365 2.40661
370 2.74466
375 2.61773
380 2.73758
385 3.09449
390 3.19231
395 3.1462
400 3.52409
405 3.65113
410 3.96366
415 4.14092
420 4.33663
425 4.60693
430 4.88497
435 5.1169
440 5.62009
445 6.00626
450 6.51723
455 7.7441
460 8.31398
465 10.3542
470 11.389
475 12.8822
480 17.301
485 22.5743
490 32.7592
495 50.9204
500 2084.05
505 9999.9
510 9999.9
515 7440.21
520 899.61
525 131.808
530 34.7633
535 19.6712
540 13.8553
545 10.0696
550 8.58891
555 7.59062
560 7.32339
565 6.75389
570 6.32259
575 5.7533
580 4.96151
585 4.22004
590 4.13418
595 3.91286
600 2.92279
Ex : 518
200 1.27852
205 1.238
210 1.21255
215 1.39825
220 1.2792
225 1.35567
230 1.18038
235 1.31348
240 1.23707
245 1.28984
250 4.96988
255 11.8554
260 3.50729
265 1.70676
270 1.4788
275 1.44749
280 1.66493
285 1.6064
290 1.69453
295 1.72233
300 1.65067
305 1.63983
310 1.72721
315 1.7905
320 2.00757
325 1.85032
330 1.77995
335 2.03195
340 2.07108
345 2.05316
350 2.07648
355 2.16617
360 2.30414
365 2.46535
370 2.70956
375 2.86425
380 2.58154
385 2.80332
390 2.8797
395 3.19462
400 3.29925
405 3.52321
410 3.79158
415 3.87937
420 4.0653
425 4.08103
430 4.61741
435 4.93512
440 5.08466
445 5.73722
450 6.39757
455 6.92884
460 7.92854
465 9.25567
470 10.1389
475 10.9611
480 13.4672
485 17.1173
490 22.3773
495 31.7154
500 49.6349
505 2052.67
510 9999.9
515 9999.9
520 7574.35
525 914.577
530 133.446
535 34.8351
540 19.9326
545 14.0537
550 10.1434
555 8.72113
560 7.94197
565 7.37225
570 6.84176
575 6.09859
580 5.50399
585 4.73947
590 4.43605
595 3.83548
600 3.36744
Ex : 523
200 1.30939
205 1.23205
210 1.24154
215 1.21033
220 1.30652
225 1.33477
230 1.31906
235 1.25437
240 1.4085
245 1.30195
250 1.71932
255 13.9193
260 10.3658
265 2.46768
270 1.61197
275 1.53948
280 1.5903
285 1.58754
290 1.82162
295 1.74707
300 1.73197
305 1.81323
310 1.71962
315 1.67957
320 1.81334
325 1.72738
330 1.68093
335 1.88807
340 2.00246
345 1.9907
350 2.16317
355 2.24314
360 2.30756
365 2.23076
370 2.46103
375 2.71963
380 2.74145
385 2.76646
390 2.82495
395 3.04545
400 3.51956
405 3.35128
410 3.43528
415 3.71559
420 3.90619
425 4.13854
430 4.54313
435 4.68358
440 5.02242
445 5.43748
450 5.61722
455 6.47885
460 7.43935
465 8.30972
470 9.2063
475 9.63685
480 10.9585
485 13.0136
490 16.9188
495 22.5758
500 31.3332
505 48.9531
510 1923.5
515 9999.9
520 9999.9
525 7888.5
530 950.887
535 137.865
540 35.7678
545 20.0697
550 14.2712
555 10.5145
560 8.92855
565 7.72004
570 7.647
575 6.8023
580 6.02482
585 5.63803
590 4.7939
595 4.41795
600 3.88871
Ex : 528
200 1.16984
205 1.30586
210 1.25087
215 1.3537
220 1.28768
225 1.17772
230 1.33984
235 1.1372
240 1.38005
245 1.4201
250 1.4271
255 7.8626
260 22.8059
265 5.98073
270 2.16131
275 1.61138
280 1.77209
285 1.79304
290 1.66351
295 1.70719
300 1.6822
305 1.84115
310 1.7635
315 1.98633
320 1.94585
325 1.94428
330 1.87735
335 2.08383
340 1.87216
345 2.17335
350 2.23792
355 2.10707
360 2.01989
365 2.33862
370 2.66295
375 2.71194
380 2.72643
385 2.71035
390 2.65083
395 2.97488
400 3.08212
405 3.38145
410 3.57509
415 3.74123
420 3.77015
425 3.93119
430 4.38207
435 4.32758
440 4.73662
445 5.26686
450 5.58107
455 6.0074
460 6.81295
465 7.79295
470 8.12085
475 8.60435
480 9.85409
485 11.1813
490 13.9098
495 16.8795
500 21.9102
505 31.6356
510 48.5217
515 1811.2
520 9999.9
525 9999.9
530 7684.38
535 927.53
540 134.658
545 35.0877
550 19.5474
555 14.1448
560 10.3559
565 8.50904
570 7.59564
575 7.31634
580 6.62322
585 6.17283
590 5.58532
595 4.96891
600 4.53598
Ex : 533
200 1.29547
205 1.33093
210 1.37866
215 1.21509
220 1.31735
225 1.20827
230 1.35103
235 1.37333
240 1.29568
245 1.23732
250 1.36586
255 2.34723
260 27.0676
265 20.5356
270 3.83651
275 1.80597
280 1.76724
285 1.71047
290 1.80042
295 1.89864
300 2.01193
305 1.89872
310 1.78809
315 1.91343
320 1.92617
325 2.01395
330 2.05762
335 2.01301
340 2.02578
345 1.99578
350 2.07523
355 2.02944
360 2.22075
365 2.47182
370 2.49313
375 2.48381
380 2.71406
385 2.80582
390 2.82616
395 2.70703
400 3.15211
405 3.24495
410 3.47976
415 3.51409
420 3.67932
425 3.93013
430 4.2904
435 4.31826
440 4.77341
445 4.99653
450 5.47485
455 5.67449
460 6.24125
465 7.04485
470 7.61624
475 7.98523
480 8.61039
485 9.42453
490 11.1991
495 13.003
500 16.5536
505 21.3472
510 30.1071
515 47.5354
520 1814.56
525 9999.9
530 9999.9
535 7831.21
540 943.598
545 137.029
550 35.2229
555 19.6359
560 13.919
565 9.78399
570 8.15351
575 7.67583
580 6.95182
585 6.7266
590 6.10435
595 5.44351
600 4.97886
Ex : 538
200 1.50846
205 1.27366
210 1.23795
215 1.15828
220 1.3159
225 1.30476
230 1.31059
235 1.26844
240 1.35587
245 1.36015
250 1.21417
255 1.3985
260 14.0438
265 45.4438
270 12.3824
275 2.82073
280 1.94713
285 2.09466
290 1.91559
295 2.18312
300 2.04252
305 2.14073
310 2.0937
315 2.04779
320 2.12257
325 2.00572
330 1.97087
335 2.00149
340 2.0539
345 1.96127
350 1.99782
355 2.11325
360 2.06972
365 2.32239
370 2.16943
375 2.35298
380 2.59942
385 2.66196
390 2.75584
395 3.02589
400 2.97695
405 2.96573
410 3.42308
415 3.48361
420 3.62537
425 3.78862
430 3.88054
435 4.23798
440 4.40466
445 4.79193
450 5.29206
455 5.42335
460 6.14302
465 6.87217
470 6.87079
475 7.17473
480 7.86087
485 8.14214
490 9.80348
495 10.855
500 13.496
505 16.4322
510 21.9554
515 29.7382
520 46.3219
525 1543.13
530 9999.9
535 9999.9
540 8584.51
545 1035.28
550 147.561
555 37.0005
560 19.7679
565 14.6547
570 10.4783
575 8.14693
580 7.44509
585 7.09099
590 6.58245
595 6.15661
600 7.30177
Ex : 543
200 1.3371
205 1.29163
210 1.21985
215 1.3334
220 1.1983
225 1.3042
230 1.35932
235 1.26543
240 1.37485
245 1.54553
250 1.35092
255 1.41224
260 3.30422
265 51.5116
270 43.4836
275 6.89807
280 2.45226
285 2.03438
290 2.09277
295 2.23406
300 2.02171
305 2.09103
310 1.91715
315 2.09315
320 2.18105
325 2.17358
330 2.09688
335 2.03366
340 1.94424
345 2.14987
350 1.8791
355 2.21947
360 2.33209
365 2.30678
370 2.2779
375 2.40879
380 2.41422
385 2.62
390 2.69948
395 2.80803
400 2.83378
405 3.05775
410 2.97284
415 3.53975
420 3.61623
425 3.57405
430 3.90028
435 4.23157
440 4.26282
445 4.57005
450 4.89919
455 4.99678
460 5.72251
465 6.40098
470 6.65316
475 6.44744
480 7.35855
485 8.04957
490 8.89897
495 9.37944
500 10.6565
505 12.943
510 16.5824
515 21.5827
520 29.2583
525 45.4706
530 1471.57
535 9999.9
540 9999.9
545 8920.1
550 1078.36
555 152.515
560 36.8934
565 19.8663
570 13.9433
575 9.8715
580 7.99732
585 7.37595
590 7.18415
595 6.42283
600 4.47211
Ex : 548
200 1.33452
205 1.22647
210 1.25568
215 1.23097
220 1.46773
225 1.14356
230 1.36682
235 1.37991
240 1.27807
245 1.24662
250 1.24448
255 1.42506
260 1.47126
265 24.5537
270 86.2272
275 21.571
280 4.06703
285 2.30155
290 2.07353
295 2.32997
300 2.24286
305 1.98322
310 2.11115
315 2.08267
320 2.00275
325 1.96088
330 2.04347
335 1.9775
340 2.11236
345 2.18064
350 2.13476
355 1.93243
360 2.16231
365 2.22375
370 2.26972
375 2.43482
380 2.41385
385 2.49774
390 2.60064
395 2.5837
400 2.95631
405 2.97623
410 2.8827
415 2.87928
420 3.53391
425 3.36762
430 3.722
435 3.95447
440 3.86308
445 4.49475
450 4.78658
455 4.96483
460 5.3249
465 6.08384
470 6.08449
475 6.37709
480 6.8303
485 6.9214
490 7.62818
495 8.50468
500 9.49142
505 10.57
510 12.7333
515 15.7341
520 21.3371
525 29.1718
530 45.6594
535 1595.98
540 9999.9
545 9999.9
550 8698.09
555 1048.54
560 148.087
565 35.8065
570 18.9887
575 12.8796
580 9.51477
585 7.23733
590 6.81683
595 6.57679
600 5.19913
Ex : 553
200 1.5631
205 1.31505
210 1.41921
215 1.20895
220 1.44278
225 1.22804
230 1.37362
235 1.37252
240 1.29846
245 1.3841
250 1.49042
255 1.35445
260 1.47775
265 4.03042
270 84.6238
275 71.6961
280 10.6405
285 2.95995
290 2.14142
295 2.29429
300 2.30911
305 2.35032
310 2.14808
315 1.98837
320 2.08082
325 2.07417
330 2.16964
335 2.23455
340 2.13489
345 2.1044
350 1.99611
355 2.09207
360 2.33805
365 2.27343
370 2.12117
375 2.25012
380 2.28558
385 2.40762
390 2.65033
395 2.69473
400 2.82901
405 3.15271
410 3.24932
415 3.1173
420 3.32765
425 3.52835
430 3.87035
435 3.82312
440 3.87408
445 4.55217
450 4.71462
455 4.73874
460 5.40232
465 5.89831
470 6.01608
475 6.08377
480 6.53101
485 6.88161
490 7.22513
495 7.78164
500 8.2895
505 9.04777
510 10.2625
515 12.6004
520 15.7874
525 20.5471
530 28.8175
535 44.8058
540 1417.04
545 9999.9
550 9999.9
555 9128.53
560 1103.87
565 153.629
570 35.9969
575 18.1966
580 12.7299
585 8.74381
590 7.46809
595 6.53844
600 4.98264
Ex : 558
200 1.31693
205 1.36438
210 1.33801
215 1.34817
220 1.42459
225 1.48401
230 1.38424
235 1.56386
240 1.44234
245 1.37548
250 1.3648
255 1.42896
260 1.54205
265 1.63332
270 35.8859
275 137.208
280 34.3761
285 5.85798
290 2.41707
295 2.22288
300 2.19877
305 2.24099
310 2.2053
315 1.96232
320 2.15531
325 1.99181
330 2.08983
335 2.12101
340 2.02073
345 1.97461
350 2.16497
355 2.12448
360 2.09854
365 2.22708
370 2.29972
375 2.35893
380 2.39917
385 2.561
390 2.7183
395 2.71622
400 2.74385
405 2.91728
410 2.85039
415 3.15814
420 3.14865
425 3.11279
430 3.52321
435 3.89173
440 3.78238
445 3.94077
450 4.2129
455 4.66197
460 5.25218
465 5.58996
470 5.75756
475 5.86294
480 6.03743
485 6.1841
490 6.75484
495 6.929
500 7.17523
505 8.26787
510 9.22862
515 10.2972
520 12.6257
525 15.8564
530 20.4556
535 28.3266
540 44.8252
545 1346.73
550 9999.9
555 9999.9
560 9299.07
565 1123.8
570 155.088
575 34.9584
580 17.3037
585 11.7825
590 8.63821
595 6.62639
600 3.04342
Ex : 563
200 1.40777
205 1.44964
210 1.2177
215 1.46957
220 1.22392
225 1.21212
230 1.33208
235 1.37021
240 1.33347
245 1.47719
250 1.45243
255 1.38917
260 1.47393
265 1.5325
270 5.66752
275 122.809
280 101.67
285 14.2818
290 3.56168
295 2.47937
300 2.22007
305 2.09432
310 2.12481
315 1.9714
320 2.13163
325 2.08683
330 2.18786
335 2.06409
340 2.27325
345 1.98456
350 2.02012
355 2.12355
360 2.11491
365 2.3822
370 2.24462
375 2.22272
380 2.54352
385 2.5455
390 2.6267
395 2.65511
400 2.50078
405 2.74325
410 3.03769
415 3.08471
420 3.13622
425 3.20842
430 3.21836
435 3.56333
440 4.01025
445 4.03098
450 4.10721
455 4.70565
460 4.7578
465 5.22597
470 5.42344
475 5.32288
480 5.66742
485 5.81075
490 6.29304
495 6.43883
500 7.02673
505 7.46964
510 8.1016
515 9.09085
520 10.2144
525 12.2145
530 15.5148
535 20.4098
540 27.9615
545 43.8388
550 1327.8
555 9999.9
560 9999.9
565 9162.46
570 1106.55
575 150.902
580 33.4775
585 16.4
590 10.9767
595 8.01738
600 6.43617
Ex : 568
200 1.46708
205 1.28449
210 1.40059
215 1.33018
220 1.30481
225 1.43571
230 1.39253
235 1.2851
240 1.38744
245 1.5264
250 1.53217
255 1.46933
260 1.46425
265 1.40734
270 1.52923
275 44.8961
280 185.33
285 49.3144
290 7.32382
295 2.67583
300 1.7106
305 1.86282
310 2.11196
315 2.07429
320 1.97107
325 1.81444
330 2.05977
335 2.05556
340 2.14383
345 2.11779
350 2.05166
355 2.10515
360 2.21886
365 1.97895
370 2.23662
375 2.24454
380 2.24014
385 2.25579
390 2.43022
395 2.59032
400 2.54363
405 2.73351
410 2.83143
415 2.7815
420 2.97067
425 2.97087
430 2.9801
435 3.37819
440 3.61915
445 4.11937
450 3.9712
455 4.29015
460 4.47855
465 4.72682
470 4.81317
475 5.28398
480 5.54666
485 5.85691
490 6.13008
495 6.12404
500 6.39607
505 7.18519
510 6.98498
515 8.41589
520 8.73382
525 10.0947
530 12.1168
535 15.2213
540 20.1921
545 28.4095
550 43.2508
555 1042.59
560 9999.9
565 9999.9
570 9599.62
575 1162.49
580 155.91
585 32.0149
590 15.0863
595 10.3422
600 8.59956
Ex : 573
200 1.3246
205 1.43211
210 1.25642
215 1.26954
220 1.19069
225 1.34178
230 1.23812
235 1.15481
240 1.42215
245 1.31987
250 1.20413
255 1.41772
260 1.34011
265 1.43108
270 1.72009
275 5.46621
280 149.495
285 143.35
290 19.7573
295 3.84908
300 1.98408
305 1.70921
310 1.96398
315 2.02023
320 2.15874
325 1.59258
330 1.96588
335 2.00432
340 2.17943
345 1.9305
350 2.02669
355 2.05566
360 2.00898
365 2.08586
370 2.21735
375 2.1279
380 2.16818
385 2.25374
390 2.26228
395 2.32325
400 2.39801
405 2.49383
410 2.84192
415 2.68429
420 2.67626
425 3.42735
430 3.03408
435 2.97496
440 2.85947
445 3.51072
450 3.77867
455 3.97272
460 4.2969
465 4.70162
470 4.88655
475 4.92802
480 5.23976
485 5.36805
490 5.40835
495 5.54219
500 5.62814
505 6.12484
510 6.86113
515 7.08834
520 7.60665
525 8.42117
530 9.71405
535 11.4483
540 14.6507
545 19.389
550 26.63
555 40.4658
560 863.126
565 9999.9
570 9999.9
575 9375.97
580 1132.83
585 149.732
590 30.3246
595 13.4484
600 11.9231
Ex : 578
200 1.00065
205 1.12402
210 1.27031
215 1.0702
220 1.11015
225 1.30022
230 1.29089
235 1.15772
240 1.32245
245 1.21702
250 1.28772
255 1.34024
260 1.20191
265 1.30338
270 1.33266
275 1.56941
280 53.6847
285 224.465
290 61.9679
295 8.83493
300 2.57502
305 1.62233
310 1.7117
315 2.02802
320 1.75563
325 2.06288
330 1.73319
335 1.62438
340 1.90201
345 1.81339
350 1.91783
355 2.02513
360 1.92696
365 1.87605
370 2.20951
375 2.22834
380 2.28407
385 2.24012
390 2.30352
395 2.30469
400 2.2919
405 2.37169
410 2.60806
415 2.32042
420 2.54239
425 2.67839
430 2.80574
435 2.71901
440 3.13158
445 3.19129
450 3.68559
455 3.68494
460 4.23878
465 4.48271
470 4.7034
475 4.70846
480 4.60117
485 4.59053
490 5.13024
495 5.46466
500 5.1809
505 5.69328
510 5.85545
515 6.15923
520 6.68702
525 7.34681
530 7.93426
535 8.62356
540 10.9371
545 14.5083
550 18.358
555 25.3083
560 38.6544
565 786.554
570 9999.9
575 9999.9
580 8260.79
585 992.418
590 131.714
595 26.5819
600 10.006
Ex : 583
200 1.30032
205 1.19165
210 0.967335
215 1.13058
220 1.15297
225 1.12319
230 1.16426
235 1.15133
240 1.07842
245 0.942746
250 1.09779
255 1.06467
260 1.12086
265 1.27003
270 1.41393
275 1.36969
280 6.5751
285 176.551
290 170.098
295 23.754
300 4.16553
305 2.0659
310 1.70103
315 1.74823
320 1.72875
325 1.76148
330 1.74138
335 1.72365
340 1.63595
345 1.96111
350 1.68816
355 2.03477
360 1.94815
365 1.74801
370 1.86317
375 1.86851
380 2.03934
385 2.24355
390 2.26392
395 2.16423
400 2.38931
405 2.09985
410 2.35233
415 2.29406
420 2.44013
425 2.33136
430 2.5828
435 2.82749
440 2.82977
445 3.09635
450 2.90067
455 3.43262
460 3.80511
465 4.37692
470 3.8138
475 3.96793
480 4.37634
485 4.39758
490 4.78457
495 4.88526
500 4.8897
505 5.01718
510 5.10092
515 6.05517
520 6.14401
525 6.35918
530 6.9575
535 7.45926
540 8.67085
545 10.9085
550 13.6432
555 17.6402
560 23.8959
565 35.529
570 696.965
575 9999.9
580 9999.9
585 6909.83
590 833.369
595 111.116
600 23.747
Ex : 588
200 1.17336
205 1.02329
210 1.18604
215 1.17441
220 1.10744
225 1.02057
230 1.11698
235 1.09916
240 1.21431
245 1.05716
250 1.0328
255 1.05965
260 0.967679
265 1.09117
270 1.23834
275 1.44633
280 1.36959
285 57.5767
290 262.558
295 75.4494
300 10.2429
305 2.83795
310 1.86457
315 1.66437
320 1.77345
325 1.99533
330 1.71189
335 1.58389
340 1.76658
345 1.5677
350 1.89146
355 1.76524
360 1.64292
365 1.58606
370 1.88438
375 1.71163
380 1.73889
385 1.88133
390 1.82609
395 2.1723
400 2.20882
405 2.33415
410 2.18945
415 2.16079
420 2.13334
425 2.44991
430 2.32008
435 2.41636
440 2.66751
445 2.88322
450 3.17585
455 2.7213
460 3.24657
465 3.82592
470 4.07911
475 3.91189
480 3.79982
485 4.20318
490 4.22259
495 4.42764
500 4.143
505 4.89129
510 4.81091
515 4.90851
520 5.26852
525 5.9163
530 6.19149
535 6.81385
540 7.58309
545 8.6186
550 10.5009
555 13.2801
560 16.7421
565 22.9782
570 32.1872
575 610.982
580 9999.9
585 9999.9
590 6506.46
595 783.612
600 104.923
Ex : 593
200 0.997084
205 1.03951
210 1.06717
215 0.898124
220 0.936649
225 1.08133
230 0.960085
235 1.0819
240 0.965042
245 1.15268
250 0.974622
255 1.06881
260 1.01902
265 0.938655
270 1.13398
275 1.18292
280 1.45174
285 6.82376
290 201.639
295 205.964
300 28.6362
305 4.77933
310 2.23219
315 1.6769
320 1.69305
325 1.74141
330 1.64062
335 1.79156
340 1.73151
345 1.80244
350 1.50769
355 1.64108
360 1.75494
365 1.70962
370 1.84997
375 1.80992
380 1.98064
385 1.97822
390 1.95213
395 2.17143
400 2.01221
405 2.39945
410 2.16051
415 2.03791
420 2.10791
425 2.10697
430 2.36424
435 2.48634
440 2.36705
445 2.8899
450 2.7097
455 2.8645
460 2.93602
465 3.75396
470 3.64651
475 3.47214
480 3.67689
485 3.88897
490 4.15454
495 3.99114
500 4.00403
505 4.06884
510 4.30507
515 4.40669
520 4.76573
525 4.79838
530 5.3549
535 5.78756
540 6.86624
545 7.52748
550 8.6123
555 10.4771
560 12.5832
565 16.1925
570 20.1054
575 28.5518
580 541.357
585 9999.9
590 9999.9
595 5774.26
600 863.203
Ex : 598
200 1.18274
205 0.954411
210 0.804168
215 0.825471
220 0.922292
225 1.04571
230 0.984917
235 0.997265
240 1.01643
245 1.04639
250 1.07477
255 0.878916
260 1.03981
265 1.02414
270 1.08779
275 1.34656
280 1.13789
285 1.37373
290 68.613
295 316.117
300 94.908
305 12.5979
310 2.6135
315 1.76139
320 1.53837
325 1.73305
330 1.4868
335 1.88953
340 1.52749
345 1.51718
350 1.42877
355 1.34657
360 1.50176
365 1.55087
370 1.6034
375 1.98109
380 2.05515
385 1.67999
390 1.82515
395 1.88196
400 1.95992
405 1.92856
410 2.0043
415 2.09243
420 2.58233
425 2.12232
430 2.03684
435 2.06999
440 2.14194
445 2.52394
450 2.53999
455 2.69462
460 3.08511
465 3.19999
470 3.23856
475 3.6698
480 3.72084
485 4.04512
490 4.07494
495 4.01706
500 4.07157
505 4.06038
510 4.26603
515 4.21307
520 4.51061
525 4.9021
530 5.34665
535 5.2806
540 5.71528
545 6.50465
550 6.94465
555 7.82503
560 10.0853
565 11.9199
570 15.2993
575 18.8196
580 26.494
585 538.342
590 9999.9
595 9999.9
600 9999.9
Ex : 603
200 0.945919
205 0.991352
210 0.891565
215 0.871224
220 0.934365
225 0.939899
230 1.00448
235 0.868246
240 0.824104
245 0.784238
250 0.836616
255 0.90494
260 0.87049
265 0.926371
270 0.834314
275 1.14995
280 1.21214
285 1.40221
290 6.64468
295 234.841
300 255.29
305 35.8478
310 5.63588
315 1.85067
320 1.51553
325 1.65761
330 1.60566
335 1.63134
340 1.57693
345 1.48373
350 1.43936
355 1.77448
360 1.46519
365 1.48213
370 1.74862
375 1.79185
380 1.87597
385 1.99652
390 1.82151
395 2.10403
400 1.73984
405 1.98035
410 1.94228
415 1.96805
420 1.71739
425 2.15372
430 2.4995
435 2.22462
440 2.30136
445 2.17551
450 2.76355
455 2.75287
460 2.94258
465 3.44325
470 3.06838
475 2.99207
480 3.26522
485 3.50143
490 3.68076
495 3.65021
500 3.48215
505 3.43336
510 3.88999
515 4.06615
520 4.24475
525 4.35733
530 4.73076
535 4.76213
540 5.48829
545 6.00399
550 6.17385
555 7.1177
560 7.5885
565 9.17005
570 10.7716
575 13.4004
580 17.0279
585 24.5574
590 470.669
595 9999.9
600 9999.9
