File format V 1.0
jeu. 12. mai 17:03:53 2016
Operator : 
Comments : 

=============================================
SpectroFluorometer parameters
Mode : 3D measurement
Data : Fluorescence
Phospho. : Ordinary
Spectrum : Fluorescence

Scan speed : 2400 nm/mn
Response : 100 ms
PM Voltage : 700 V
Shutter : On

Lambda Ex. Start : 203
Lambda Ex. End : 603
Lambda Ex. Step : 5
Ex. Slit : 5 nm

Lambda Em. Start : 200
Lambda Em. End : 600
Lambda Em. Step : 5
Em. Slit : 5 nm

Repetition : 1
Decal lambda em : 10
=============================================
DATA
Ex : 203
200 9.57432
205 9.74592
210 9.64577
215 12.9431
220 11.3484
225 8.55187
230 13.8718
235 15.5291
240 18.7151
245 16.5382
250 12.3064
255 10.6547
260 10.0581
265 11.9351
270 12.8098
275 12.1266
280 14.8641
285 16.0683
290 12.9084
295 18.4553
300 19.7499
305 17.5493
310 17.9029
315 20.7498
320 19.3743
325 25.6005
330 23.7191
335 21.7874
340 23.9538
345 22.495
350 30.3023
355 28.6122
360 28.8881
365 36.389
370 32.012
375 35.8398
380 35.7483
385 36.6578
390 27.242
395 34.8058
400 36.4197
405 42.0578
410 33.8898
415 36.8159
420 39.1102
425 30.7192
430 31.5759
435 33.3144
440 35.7584
445 38.6905
450 40.9679
455 41.6367
460 44.3838
465 51.7443
470 35.9866
475 36.4966
480 43.2861
485 38.352
490 42.8839
495 33.6472
500 35.7427
505 34.2034
510 30.6151
515 35.0826
520 34.8807
525 29.2872
530 36.2656
535 27.5117
540 30.9522
545 31.2385
550 39.3415
555 35.3659
560 33.3617
565 32.2118
570 31.1123
575 33.723
580 29.7652
585 32.2386
590 25.1712
595 28.6333
600 3.25836
Ex : 208
200 10.5145
205 8.55753
210 9.42165
215 9.3281
220 12.0461
225 12.7947
230 11.5404
235 7.82024
240 13.0867
245 15.0569
250 10.5706
255 10.6763
260 11.2478
265 11.8985
270 11.8973
275 14.2464
280 11.1667
285 15.0529
290 18.7209
295 15.389
300 16.5584
305 18.9437
310 19.8294
315 19.0556
320 21.5983
325 28.563
330 22.3836
335 25.0028
340 28.5075
345 28.311
350 28.9635
355 33.928
360 34.3867
365 26.4744
370 31.9429
375 35.6374
380 35.5234
385 37.7381
390 38.6782
395 37.419
400 34.3841
405 34.7058
410 41.7558
415 38.5095
420 35.7479
425 31.7928
430 37.526
435 31.9359
440 36.0908
445 33.9862
450 41.0633
455 41.7567
460 51.9326
465 49.542
470 41.2839
475 39.4103
480 39.3492
485 46.4435
490 35.9712
495 38.8899
500 39.6425
505 30.0616
510 38.8182
515 37.5913
520 34.4247
525 30.923
530 35.7734
535 28.1942
540 34.7813
545 32.671
550 35.4022
555 40.6403
560 37.0538
565 32.8926
570 34.5557
575 33.3925
580 31.7129
585 30.8233
590 28.1753
595 25.8044
600 23.9099
Ex : 213
200 9.38012
205 10.476
210 10.6551
215 14.2562
220 12.0314
225 12.7372
230 8.87023
235 13.2844
240 11.497
245 10.9458
250 15.7093
255 15.7635
260 13.0628
265 11.2653
270 10.9356
275 13.7226
280 15.6995
285 13.7376
290 19.921
295 20.2564
300 23.1462
305 13.7875
310 15.7816
315 18.4198
320 25.5905
325 28.5345
330 29.6614
335 27.5432
340 26.6554
345 39.2721
350 29.1401
355 28.4422
360 24.6738
365 24.3864
370 30.5265
375 37.8809
380 30.6291
385 37.5765
390 31.9566
395 32.9991
400 41.7804
405 37.5592
410 37.0636
415 36.2102
420 32.7141
425 33.6942
430 32.9138
435 30.9505
440 33.5738
445 39.1228
450 41.1741
455 36.5936
460 40.7065
465 43.3332
470 43.4329
475 40.3433
480 42.6881
485 38.7636
490 37.8259
495 33.4452
500 30.7506
505 37.2269
510 30.1938
515 28.9962
520 32.0889
525 35.0172
530 33.6598
535 27.8147
540 35.6426
545 32.4335
550 34.3416
555 32.3128
560 35.0828
565 34.4599
570 35.063
575 31.3478
580 30.7392
585 34.2039
590 24.284
595 23.7169
600 6.98221
Ex : 218
200 10.6784
205 10.4541
210 12.8088
215 13.6169
220 11.6245
225 12.8682
230 9.44972
235 11.3819
240 14.3358
245 10.5999
250 10.89
255 7.73034
260 12.1633
265 12.5591
270 12.8832
275 13.0629
280 12.7293
285 12.432
290 14.7714
295 16.2187
300 24.135
305 21.5216
310 19.8149
315 29.2508
320 21.1861
325 26.262
330 27.5592
335 25.1987
340 24.6628
345 35.6435
350 32.3535
355 27.9062
360 27.8785
365 28.8816
370 28.7746
375 28.7304
380 39.0751
385 32.3505
390 32.5048
395 33.9932
400 31.0436
405 39.1101
410 35.1606
415 40.1191
420 40.0776
425 34.2096
430 34.876
435 35.5819
440 34.7578
445 44.2418
450 38.2215
455 37.3763
460 34.7445
465 44.8198
470 44.7126
475 41.2272
480 38.8697
485 36.6251
490 33.6089
495 31.5696
500 36.5834
505 37.6786
510 44.5836
515 43.469
520 33.6842
525 31.7005
530 35.1845
535 32.6706
540 34.4442
545 37.1607
550 38.4184
555 35.2041
560 34.6467
565 39.2447
570 41.5738
575 37.8648
580 36.7933
585 31.7074
590 34.0765
595 29.6678
600 32.03
Ex : 223
200 9.21939
205 10.2737
210 8.33602
215 9.00291
220 11.9031
225 8.79372
230 8.35527
235 8.14413
240 10.7796
245 10.8601
250 10.8595
255 10.7982
260 9.1952
265 11.8476
270 15.4196
275 13.7137
280 14.0788
285 18.5218
290 19.4856
295 18.1598
300 20.7096
305 20.9514
310 25.8475
315 24.4818
320 20.7185
325 24.3478
330 31.1719
335 22.8055
340 27.7546
345 27.37
350 24.4836
355 23.9886
360 29.246
365 23.9987
370 30.4518
375 30.9102
380 37.93
385 28.5908
390 31.6355
395 35.1168
400 39.1102
405 35.9199
410 32.0007
415 35.3433
420 31.9616
425 34.221
430 34.2444
435 33.2611
440 37.4944
445 39.4874
450 43.4627
455 40.529
460 39.7747
465 42.6047
470 38.1731
475 37.6124
480 39.9932
485 41.495
490 34.0197
495 33.7378
500 33.6101
505 31.5023
510 28.1678
515 30.7805
520 31.8249
525 29.1119
530 33.4682
535 36.5109
540 32.4533
545 36.5115
550 42.0058
555 34.6249
560 35.3557
565 40.0923
570 35.1845
575 33.5597
580 33.4363
585 31.0557
590 29.6936
595 27.4167
600 27.7564
Ex : 228
200 9.35678
205 6.16148
210 10.3833
215 11.3543
220 10.7479
225 15.4708
230 11.2072
235 9.38676
240 11.2369
245 13.2803
250 12.169
255 8.91529
260 12.4009
265 11.9725
270 11.3127
275 16.1279
280 14.5671
285 12.0938
290 17.6637
295 13.9385
300 18.3719
305 19.8843
310 20.4872
315 22.728
320 22.3951
325 27.3153
330 26.7964
335 26.5446
340 28.6521
345 31.6601
350 26.6747
355 27.3289
360 33.4111
365 30.5654
370 29.8334
375 33.2751
380 35.1987
385 34.992
390 30.6386
395 35.8773
400 30.0227
405 33.9968
410 33.6622
415 31.222
420 33.4727
425 36.2657
430 34.8278
435 35.747
440 36.5907
445 39.4854
450 69.4968
455 103.096
460 112.528
465 56.8559
470 44.4555
475 34.0854
480 32.8878
485 35.3981
490 35.6422
495 34.7563
500 40.6368
505 31.1369
510 35.3502
515 34.572
520 27.4819
525 32.9305
530 38.0335
535 31.6049
540 34.1819
545 29.7939
550 32.5347
555 38.4893
560 36.9822
565 38.575
570 33.542
575 31.8235
580 33.2834
585 30.9351
590 26.715
595 27.7208
600 33.2855
Ex : 233
200 7.28704
205 7.26227
210 12.8403
215 8.97975
220 9.5133
225 24.1714
230 36.3429
235 14.5514
240 11.3108
245 9.86543
250 8.41051
255 9.15447
260 11.5411
265 11.6604
270 11.1849
275 9.90729
280 12.4414
285 14.3406
290 18.1225
295 16.5383
300 19.1839
305 19.1362
310 20.1731
315 23.36
320 21.8432
325 30.3133
330 28.348
335 30.3814
340 30.4696
345 30.3817
350 31.9568
355 26.0832
360 27.3629
365 28.0185
370 29.6911
375 26.9725
380 31.9797
385 33.2172
390 28.3547
395 32.5596
400 33.4709
405 31.7704
410 29.7507
415 35.1384
420 32.6512
425 29.6102
430 34.4161
435 31.6674
440 31.0801
445 29.3509
450 32.1217
455 82.4176
460 254.551
465 352.175
470 240.167
475 75.453
480 38.0467
485 37.0941
490 38.7346
495 30.2429
500 32.1662
505 30.5459
510 30.4754
515 32.7405
520 27.8023
525 26.6178
530 26.4936
535 25.219
540 31.7021
545 33.5731
550 38.7658
555 37.7824
560 36.1705
565 36.7767
570 34.915
575 34.1686
580 26.8001
585 27.3869
590 25.7224
595 27.9141
600 31.8895
Ex : 238
200 7.19583
205 8.24257
210 10.9441
215 10.8696
220 7.46241
225 11.7904
230 57.5503
235 87.25
240 24.9333
245 9.10354
250 9.36626
255 9.12487
260 11.4659
265 12.3058
270 11.9916
275 12.7786
280 15.0606
285 14.4309
290 14.5961
295 15.6687
300 20.8097
305 20.4927
310 25.1865
315 20.5113
320 19.0552
325 24.0373
330 24.2871
335 28.312
340 29.2903
345 27.0195
350 30.6796
355 25.3883
360 29.1545
365 29.4157
370 24.4797
375 22.1802
380 30.5543
385 27.8213
390 33.8414
395 33.3401
400 35.219
405 28.2366
410 27.1953
415 30.1984
420 28.9301
425 26.5198
430 28.6996
435 34.9743
440 29.831
445 30.2157
450 25.0749
455 29.7584
460 51.8485
465 211.108
470 484.829
475 591.954
480 367.98
485 89.2617
490 36.8694
495 29.8206
500 32.2681
505 32.1653
510 32.9683
515 34.6373
520 32.5582
525 28.0882
530 29.3031
535 27.6802
540 26.8559
545 28.3767
550 29.1035
555 32.0367
560 32.0783
565 38.8622
570 32.3592
575 31.8075
580 31.2451
585 27.7348
590 25.3247
595 29.71
600 10.6921
Ex : 243
200 6.71617
205 6.10218
210 6.96648
215 4.77469
220 5.75163
225 5.28564
230 12.3495
235 90.9148
240 127.167
245 34.4336
250 9.23563
255 9.98344
260 9.62912
265 9.96357
270 10.9315
275 10.6534
280 11.9154
285 12.6081
290 15.9787
295 11.9751
300 14.2214
305 17.0899
310 16.2878
315 16.6353
320 20.1333
325 19.217
330 21.1748
335 20.2014
340 20.743
345 24.0259
350 22.3509
355 24.0572
360 25.9603
365 26.3934
370 24.6387
375 22.9708
380 27.9431
385 27.701
390 24.035
395 27.6119
400 27.5189
405 26.1578
410 25.3611
415 27.3307
420 25.383
425 26.5685
430 23.8432
435 25.5479
440 25.1569
445 25.3215
450 26.7461
455 28.6704
460 31.95
465 33.9044
470 64.9918
475 326.789
480 657.858
485 740.612
490 400.324
495 96.4142
500 34.0974
505 25.6466
510 24.7126
515 31.3974
520 33.6115
525 35.3522
530 32.59
535 27.5224
540 27.0358
545 27.7954
550 31.4208
555 27.7757
560 29.8518
565 29.5842
570 30.4519
575 32.4485
580 30.1768
585 29.4764
590 25.3532
595 23.7496
600 22.9081
Ex : 248
200 4.69231
205 4.15224
210 6.07303
215 6.08216
220 6.04074
225 6.04338
230 8.354
235 14.2361
240 105.578
245 139.641
250 35.5447
255 9.9594
260 9.44181
265 9.1741
270 10.0541
275 11.3507
280 11.0233
285 11.979
290 14.4613
295 12.1447
300 15.9739
305 17.1909
310 16.6993
315 16.9062
320 19.3223
325 17.8973
330 16.7953
335 19.252
340 19.2726
345 19.9566
350 22.7679
355 20.6344
360 23.3726
365 23.8392
370 20.1271
375 18.8552
380 25.0077
385 22.8466
390 24.81
395 24.0873
400 23.0436
405 25.0736
410 23.2709
415 19.2328
420 21.3995
425 20.885
430 22.4
435 20.7847
440 21.0521
445 19.3577
450 22.2513
455 23.2946
460 24.5541
465 25.9836
470 27.2383
475 25.3263
480 78.9062
485 399.149
490 899.744
495 849.615
500 389.869
505 79.2133
510 34.1371
515 26.9359
520 25.3894
525 30.3325
530 34.0658
535 36.8166
540 38.2448
545 33.1715
550 34.3172
555 32.1019
560 31.9093
565 29.7987
570 28.9572
575 27.8231
580 26.0763
585 22.7276
590 25.6499
595 23.8195
600 12.4588
Ex : 253
200 5.2935
205 4.87227
210 6.60366
215 4.23746
220 3.45437
225 3.64381
230 5.20248
235 5.34759
240 14.8342
245 120.926
250 206.353
255 65.7724
260 14.6596
265 9.3816
270 11.9278
275 12.602
280 9.61968
285 12.6307
290 12.3808
295 14.1442
300 13.1093
305 15.2251
310 16.5674
315 17.8104
320 16.8823
325 17.0483
330 15.0599
335 12.6744
340 17.1262
345 17.9491
350 19.3876
355 16.7789
360 19.5352
365 20.3719
370 19.7174
375 18.0343
380 18.5345
385 19.3959
390 16.6699
395 21.6126
400 22.2216
405 20.7218
410 21.0784
415 20.8109
420 17.4882
425 20.1245
430 20.2638
435 19.1267
440 17.4678
445 19.6356
450 19.4164
455 17.9867
460 18.4551
465 21.1307
470 20.453
475 21.7966
480 19.6902
485 19.9667
490 88.2357
495 395.993
500 1023.53
505 1367.97
510 696.651
515 155.58
520 44.8392
525 28.5813
530 27.7486
535 28.3177
540 33.4122
545 33.3804
550 36.8758
555 35.7659
560 30.4735
565 26.5798
570 30.544
575 25.9846
580 27.9613
585 25.2649
590 23.562
595 24.6575
600 10.0567
Ex : 258
200 3.47138
205 3.10036
210 4.13575
215 4.25128
220 3.42778
225 3.37619
230 3.3444
235 3.02305
240 4.00423
245 14.5222
250 250.427
255 488.623
260 152.672
265 28.766
270 13.2855
275 14.4987
280 16.209
285 15.1656
290 15.0689
295 17.0435
300 18.5913
305 17.2696
310 15.927
315 15.6161
320 17.3443
325 16.6906
330 17.3296
335 17.6647
340 17.5688
345 19.1737
350 18.1598
355 19.1332
360 17.2897
365 16.1423
370 19.0161
375 18.2264
380 18.3212
385 17.5489
390 17.4026
395 16.049
400 20.2066
405 18.2423
410 16.5817
415 18.6509
420 17.6251
425 16.5701
430 18.6643
435 18.3932
440 18.1937
445 17.3304
450 17.4189
455 16.7587
460 21.864
465 19.1233
470 20.3687
475 18.5645
480 17.664
485 17.0916
490 21.1012
495 20.6233
500 95.7469
505 820.978
510 2677.26
515 3193.97
520 1637.53
525 294.885
530 66.0269
535 38.257
540 31.938
545 31.8678
550 36.9119
555 43.4128
560 40.3433
565 40.9718
570 36.7859
575 31.8936
580 31.274
585 30.7755
590 29.572
595 28.495
600 28.4994
Ex : 263
200 3.26811
205 3.03276
210 3.74897
215 3.44174
220 2.66462
225 2.59646
230 2.3667
235 2.68213
240 2.97431
245 3.56342
250 35.3521
255 584.815
260 1143.43
265 293.519
270 45.915
275 17.9416
280 18.4138
285 23.9485
290 21.8292
295 19.2715
300 22.3716
305 20.9735
310 19.7276
315 19.8408
320 18.5948
325 19.1361
330 18.592
335 16.5179
340 18.7562
345 16.9166
350 15.7099
355 16.3643
360 17.2528
365 15.3236
370 15.4669
375 14.7853
380 14.4078
385 16.4499
390 16.5527
395 16.0595
400 16.2359
405 16.5901
410 17.5711
415 17.5103
420 19.6302
425 16.85
430 16.0702
435 14.9763
440 17.3098
445 16.5542
450 17.8582
455 19.2414
460 18.7339
465 18.7192
470 17.083
475 16.4125
480 15.6055
485 16.1227
490 17.1682
495 18.7063
500 18.2722
505 20.5184
510 260.627
515 1950.68
520 5341.04
525 5962.2
530 2576.18
535 442.788
540 91.1829
545 46.3819
550 38.6132
555 39.421
560 41.5664
565 48.949
570 54.5986
575 51.1678
580 47.8783
585 39.5912
590 38.7324
595 38.0479
600 47.2121
Ex : 268
200 2.67787
205 2.33494
210 2.60214
215 2.70576
220 3.19241
225 3.15191
230 3.09465
235 3.45872
240 3.29253
245 2.80119
250 4.06727
255 54.7651
260 1013.36
265 1929.81
270 573.7
275 81.8135
280 26.8971
285 24.9126
290 30.4404
295 28.9419
300 27.1598
305 23.5243
310 22.7453
315 23.3102
320 20.9234
325 19.3765
330 18.1039
335 16.6398
340 17.7006
345 18.1081
350 16.5647
355 15.5599
360 15.4931
365 14.572
370 13.2019
375 13.344
380 14.0235
385 13.9948
390 15.6171
395 15.2694
400 15.7719
405 15.1273
410 15.1696
415 16.1932
420 16.2477
425 17.2018
430 15.0855
435 15.1912
440 14.698
445 14.5948
450 15.275
455 15.5816
460 14.6218
465 16.2391
470 17.7168
475 16.0223
480 15.8379
485 15.1819
490 16.4927
495 15.4446
500 16.836
505 16.4225
510 20.1023
515 27.9359
520 386.234
525 3100.14
530 8696.91
535 9656
540 4323.25
545 723.435
550 133.411
555 61.465
560 53.1526
565 50.5173
570 49.9717
575 59.2271
580 60.566
585 58.4251
590 50.9284
595 49.5556
600 46.4046
Ex : 273
200 3.18232
205 2.97815
210 2.67113
215 2.97791
220 2.97844
225 2.91325
230 3.37073
235 2.58787
240 3.61986
245 3.70663
250 4.79609
255 5.40775
260 94.0586
265 1864.26
270 3422.05
275 892.479
280 127.841
285 39.9683
290 31.0626
295 35.194
300 31.7467
305 27.1598
310 25.4475
315 23.7137
320 20.3426
325 20.7118
330 19.4711
335 19.4267
340 17.7144
345 17.1682
350 17.0031
355 14.3029
360 15.5958
365 13.507
370 14.1904
375 13.71
380 14.0499
385 14.5266
390 12.9697
395 14.0717
400 14.1644
405 13.6974
410 13.9025
415 14.2901
420 13.1433
425 13.4677
430 14.359
435 14.8118
440 13.8071
445 13.2299
450 13.5961
455 14.7484
460 15.5939
465 14.6023
470 15.3243
475 14.9345
480 14.0875
485 13.9021
490 14.7546
495 14.8211
500 14.7359
505 14.883
510 17.0777
515 18.0939
520 22.1572
525 35.5511
530 728.044
535 5505.33
540 9999.9
545 9999.9
550 5451.11
555 896.279
560 165.742
565 75.0071
570 59.4263
575 59.7057
580 59.9658
585 60.5295
590 60.8245
595 60.2879
600 46.7397
Ex : 278
200 1.84572
205 3.49183
210 2.60608
215 3.12989
220 2.7837
225 2.84049
230 3.22505
235 3.30159
240 4.02895
245 3.66529
250 5.05744
255 5.8366
260 7.22929
265 148.077
270 2809.72
275 4979.34
280 1230.52
285 169.036
290 45.9307
295 32.9092
300 34.2272
305 30.8946
310 24.4165
315 23.2652
320 20.5859
325 19.9194
330 18.6536
335 18.0356
340 17.6877
345 16.7184
350 16.023
355 15.3003
360 13.3265
365 13.4161
370 13.2925
375 12.3938
380 12.8928
385 13.1285
390 13.0936
395 12.6638
400 13.0569
405 12.2452
410 12.6002
415 12.9465
420 13.5114
425 12.9938
430 12.3618
435 13.6229
440 12.9927
445 13.866
450 13.2272
455 13.6385
460 14.3073
465 13.2742
470 13.6642
475 12.5971
480 12.6953
485 13.3242
490 13.382
495 13.5578
500 13.2847
505 14.6255
510 15.0967
515 16.4089
520 18.1607
525 21.1348
530 26.4617
535 46.4818
540 1114.21
545 7909.55
550 9999.9
555 9999.9
560 6090.95
565 1004.76
570 184.811
575 81.555
580 62.1215
585 54.922
590 50.9345
595 50.4894
600 48.0501
Ex : 283
200 2.04151
205 2.25799
210 2.64039
215 2.83571
220 2.78822
225 3.20133
230 3.19313
235 3.00269
240 3.43375
245 3.40611
250 3.89403
255 4.65248
260 5.88488
265 9.11473
270 206.585
275 3732.76
280 5988.36
285 1500.6
290 197.739
295 44.0847
300 25.6537
305 24.2701
310 24.0265
315 19.0512
320 18.0196
325 18.5602
330 16.8107
335 16.5045
340 15.7983
345 15.9608
350 15.3933
355 13.3705
360 12.9461
365 13.3012
370 12.6476
375 12.5887
380 11.5323
385 11.3431
390 10.9163
395 11.6639
400 11.7804
405 11.3091
410 12.2102
415 11.6385
420 11.6899
425 11.8341
430 12.2573
435 12.0892
440 11.4917
445 11.9863
450 12.7943
455 12.3814
460 11.7778
465 12.6901
470 13.2248
475 11.4138
480 11.4195
485 12.0303
490 12.6741
495 12.4055
500 11.2203
505 12.07
510 12.3932
515 14.0853
520 15.2444
525 16.4523
530 18.5298
535 24.3123
540 31.2508
545 57.8528
550 1460.68
555 9423.69
560 9999.9
565 9999.9
570 6170.4
575 985.747
580 172.036
585 68.7375
590 47.8902
595 41.0974
600 36.617
Ex : 288
200 2.55262
205 2.76233
210 2.44927
215 2.60909
220 2.67508
225 2.79092
230 2.80071
235 2.6308
240 3.23688
245 3.50897
250 3.76005
255 3.5854
260 5.12207
265 6.51877
270 10.3396
275 239.044
280 4381.15
285 6907.72
290 1715.21
295 220.932
300 43.2309
305 20.8853
310 22.2305
315 23.47
320 17.2374
325 15.1542
330 14.2194
335 14.2748
340 15.099
345 14.6665
350 13.7203
355 14.0155
360 11.54
365 11.9276
370 11.4944
375 10.824
380 10.8258
385 10.9232
390 10.7476
395 11.3296
400 11.9139
405 11.1012
410 11.9009
415 11.3018
420 10.7954
425 9.87517
430 10.645
435 11.0206
440 10.9945
445 10.4661
450 10.9765
455 12.2025
460 11.1677
465 11.123
470 10.9377
475 10.6596
480 10.9589
485 11.6095
490 10.5001
495 10.1397
500 10.7064
505 11.0362
510 11.7707
515 11.4692
520 12.0746
525 12.2732
530 14.2727
535 15.5832
540 18.8196
545 24.0663
550 34.8407
555 60.1649
560 1638.96
565 9986.95
570 9999.9
575 9999.9
580 5966.9
585 918.209
590 154.229
595 55.758
600 43.0661
Ex : 293
200 2.07529
205 2.20153
210 2.19324
215 2.15165
220 2.45517
225 2.43715
230 2.31192
235 2.76561
240 2.75237
245 2.64102
250 3.19482
255 3.76
260 4.7261
265 4.99168
270 6.84964
275 11.8414
280 304.901
285 4934.86
290 7324.98
295 1780.8
300 227.66
305 43.422
310 20.0424
315 20.6862
320 21.6786
325 17.8803
330 14.3739
335 12.9871
340 13.2337
345 13.0778
350 12.7254
355 11.9795
360 11.6502
365 11.3951
370 11.0648
375 9.83061
380 9.94436
385 10.4116
390 10.2974
395 10.5208
400 10.9082
405 10.853
410 10.0104
415 10.8473
420 9.859
425 10.2805
430 10.3228
435 9.97966
440 10.1134
445 9.81929
450 9.42467
455 8.99745
460 10.3753
465 10.0286
470 10.353
475 10.2074
480 9.93303
485 8.85846
490 9.3991
495 8.94112
500 9.70327
505 9.2942
510 9.06964
515 10.0593
520 10.6598
525 10.9944
530 11.7341
535 12.0599
540 14.2388
545 17.1831
550 20.6554
555 25.2186
560 35.0908
565 64.5084
570 1888.72
575 9999.9
580 9999.9
585 9999.9
590 5066.73
595 749.604
600 133.631
Ex : 298
200 2.11053
205 2.16237
210 2.22435
215 2.1748
220 2.78525
225 2.43893
230 2.72044
235 2.49517
240 2.6445
245 3.13679
250 3.25455
255 3.04474
260 3.4947
265 4.64052
270 5.56998
275 7.24439
280 12.8357
285 330.497
290 5538.09
295 8325.67
300 2027.58
305 256.17
310 47.4922
315 21.9127
320 19.8
325 21.1148
330 17.3727
335 13.6702
340 13.2315
345 12.3608
350 11.626
355 11.1696
360 10.8811
365 10.334
370 10.5616
375 10.1133
380 9.60641
385 10.384
390 9.81744
395 10.3556
400 10.2123
405 9.98416
410 9.59868
415 8.80121
420 9.01226
425 9.0418
430 8.8884
435 8.65321
440 8.66151
445 8.40294
450 8.10703
455 9.04305
460 9.09499
465 8.95538
470 8.60122
475 8.63588
480 7.6805
485 7.4355
490 8.48558
495 7.8659
500 7.49778
505 8.06196
510 8.05123
515 8.49609
520 8.68258
525 8.87734
530 9.41559
535 9.60277
540 11.0013
545 12.3258
550 14.1991
555 16.7562
560 19.3099
565 25.5414
570 34.4946
575 73.1644
580 2140.79
585 9999.9
590 9999.9
595 9999.9
600 8770.26
Ex : 303
200 2.2348
205 2.29447
210 2.24288
215 1.9877
220 2.25683
225 2.41249
230 2.24451
235 2.31158
240 2.19354
245 2.69809
250 2.77485
255 2.9567
260 2.90748
265 3.54634
270 4.76273
275 6.17816
280 8.20142
285 14.3709
290 360.694
295 6114.85
300 9226.18
305 2174.04
310 275.321
315 50.2093
320 21.5247
325 18.7993
330 20.9839
335 18.1488
340 13.5216
345 11.6106
350 10.7212
355 9.5965
360 9.21916
365 9.62605
370 9.48844
375 8.53528
380 8.86851
385 9.0223
390 8.98384
395 8.9145
400 9.04711
405 8.41173
410 8.44488
415 8.94244
420 9.16617
425 8.06357
430 8.21936
435 7.93791
440 7.68159
445 7.59913
450 7.96865
455 7.77577
460 7.50694
465 7.68306
470 7.50099
475 7.49056
480 6.87792
485 7.50592
490 7.32049
495 6.83041
500 6.94115
505 7.09524
510 7.06006
515 7.03156
520 7.42956
525 7.46088
530 7.83673
535 8.00087
540 8.95643
545 9.99285
550 10.9872
555 12.0802
560 13.955
565 16.3018
570 19.3374
575 24.2259
580 32.6257
585 77.8676
590 2311.73
595 9999.9
600 9999.9
Ex : 308
200 2.1534
205 1.92541
210 1.74444
215 1.99433
220 2.31219
225 2.22818
230 2.36346
235 1.9673
240 2.49309
245 2.53344
250 2.37712
255 2.66968
260 3.14337
265 2.91074
270 3.65208
275 4.70678
280 6.49315
285 9.05819
290 14.874
295 425.574
300 6713.41
305 9826.65
310 2329.89
315 293.336
320 51.8487
325 20.3858
330 17.7542
335 19.7088
340 17.5092
345 12.7797
350 10.4898
355 9.68906
360 8.78074
365 8.30096
370 8.29592
375 8.51394
380 8.54146
385 8.36616
390 8.42054
395 7.95572
400 8.65077
405 8.16618
410 7.63921
415 7.83064
420 7.42595
425 7.65171
430 7.28869
435 7.08506
440 7.09409
445 6.85734
450 6.7237
455 7.19536
460 7.21891
465 7.35553
470 6.7329
475 6.51525
480 6.57823
485 6.63424
490 6.66193
495 6.17875
500 6.43731
505 6.32102
510 6.42577
515 6.39073
520 6.84751
525 6.29403
530 7.04201
535 6.96383
540 8.0664
545 7.80673
550 8.88985
555 9.26014
560 10.0619
565 11.8667
570 13.4972
575 15.8992
580 19.2284
585 24.0967
590 32.9789
595 89.4992
600 373.365
Ex : 313
200 1.97511
205 2.32394
210 1.89632
215 1.74862
220 1.84413
225 1.83875
230 1.93029
235 2.0742
240 2.22559
245 2.30678
250 2.75039
255 2.60778
260 2.68502
265 3.02437
270 3.33462
275 4.06884
280 5.14607
285 6.43447
290 9.20278
295 15.4714
300 446.224
305 7553.32
310 9999.9
315 2455.87
320 309.717
325 55.0458
330 21.3777
335 16.7405
340 19.1109
345 18.6374
350 13.7442
355 10.6192
360 9.14302
365 9.29476
370 8.29418
375 8.06316
380 8.07424
385 7.8512
390 8.33354
395 7.83152
400 7.53931
405 7.0899
410 7.50495
415 6.56288
420 7.21519
425 7.04654
430 6.78639
435 6.67024
440 6.29762
445 6.71421
450 6.68053
455 6.60434
460 6.72426
465 6.50407
470 6.71401
475 6.28026
480 6.34131
485 5.9107
490 5.80896
495 6.03519
500 6.05668
505 5.89143
510 6.0908
515 5.89237
520 6.00067
525 5.67993
530 5.6558
535 6.63492
540 6.73955
545 7.05786
550 7.0667
555 8.17225
560 8.37491
565 9.4047
570 10.1896
575 11.3926
580 12.7326
585 14.9527
590 18.1774
595 23.1329
600 26.2941
Ex : 318
200 2.13608
205 2.08084
210 1.91412
215 1.92689
220 1.91277
225 1.9971
230 2.09092
235 1.94665
240 2.2351
245 2.1958
250 2.42621
255 2.42828
260 2.61346
265 2.87001
270 3.39471
275 3.4077
280 4.27002
285 5.01272
290 6.85685
295 9.73293
300 16.8146
305 559.714
310 8529.14
315 9999.9
320 2575.88
325 323.965
330 56.7403
335 21.2116
340 16.6933
345 17.9212
350 18.0391
355 13.9195
360 10.651
365 9.29356
370 8.59282
375 8.19174
380 7.85528
385 7.97977
390 7.99001
395 7.63168
400 7.21875
405 6.86871
410 6.268
415 6.59893
420 6.58569
425 6.14352
430 6.21746
435 6.26891
440 6.16814
445 6.00094
450 6.06235
455 6.33778
460 6.04475
465 6.30669
470 6.21367
475 5.80445
480 5.83531
485 5.55997
490 5.65572
495 5.793
500 5.94836
505 5.63441
510 5.4784
515 5.52918
520 5.6368
525 5.7512
530 5.21216
535 5.38464
540 5.68674
545 6.30554
550 6.50598
555 6.99846
560 6.93624
565 7.75946
570 8.19775
575 8.53335
580 9.65358
585 10.575
590 12.1572
595 14.2583
600 13.2441
Ex : 323
200 1.8182
205 1.82009
210 1.73558
215 1.72005
220 1.67922
225 1.73203
230 2.13857
235 1.96845
240 2.0582
245 2.45303
250 2.32215
255 2.4285
260 2.46017
265 2.56082
270 2.9136
275 3.02669
280 3.68627
285 4.58859
290 5.8711
295 7.35493
300 9.98286
305 17.5312
310 575.876
315 9078.38
320 9999.9
325 2820
330 353.062
335 60.8798
340 22.2307
345 15.9841
350 16.9448
355 17.1414
360 14.7679
365 10.8714
370 9.28157
375 8.82874
380 8.48585
385 7.58955
390 7.73791
395 7.65503
400 7.35094
405 6.83591
410 6.62339
415 6.26132
420 6.26972
425 6.23272
430 6.42551
435 5.98192
440 5.90421
445 5.67483
450 5.83082
455 5.74328
460 6.03302
465 5.99083
470 5.57867
475 5.76025
480 5.37136
485 5.27962
490 5.58898
495 5.32749
500 5.2925
505 5.27177
510 4.6525
515 5.24004
520 5.04423
525 5.03901
530 5.26239
535 5.44518
540 5.40221
545 5.57247
550 5.62589
555 5.68771
560 6.27413
565 6.99396
570 6.88068
575 7.70285
580 7.42418
585 8.24789
590 9.11311
595 10.2638
600 9.02297
Ex : 328
200 1.55185
205 1.67754
210 1.78821
215 1.66429
220 1.75185
225 1.97792
230 1.87956
235 1.95154
240 1.86512
245 1.87965
250 2.06257
255 2.02993
260 2.30914
265 2.52729
270 2.67728
275 2.88767
280 3.11544
285 3.61551
290 4.67819
295 5.8221
300 7.39443
305 10.9965
310 18.8965
315 612.981
320 9967.38
325 9999.9
330 2855.51
335 358.314
340 62.2363
345 22.3256
350 15.5479
355 15.2788
360 16.4344
365 15.1386
370 11.6803
375 8.97557
380 8.10794
385 7.93116
390 7.42973
395 7.26576
400 7.11807
405 6.90052
410 6.73347
415 6.68903
420 6.09543
425 6.14638
430 5.93267
435 5.94197
440 5.78763
445 5.99002
450 5.7097
455 5.37999
460 5.87292
465 5.77173
470 5.57079
475 5.08859
480 5.30543
485 5.33295
490 5.126
495 4.92492
500 4.51798
505 4.63825
510 4.82086
515 4.69037
520 4.968
525 4.75951
530 4.93936
535 5.01859
540 5.12541
545 5.11375
550 5.09703
555 5.06062
560 5.52785
565 5.50265
570 5.88365
575 6.11317
580 6.13029
585 6.59095
590 7.14038
595 7.80972
600 8.84646
Ex : 333
200 1.5018
205 1.58387
210 1.68571
215 1.65554
220 1.72221
225 1.71729
230 1.75415
235 1.76306
240 1.75585
245 1.86539
250 2.12313
255 2.35645
260 2.24828
265 2.43878
270 2.46706
275 2.93051
280 3.00428
285 3.34143
290 3.89145
295 4.57778
300 5.72317
305 7.51002
310 11.42
315 19.7693
320 727.167
325 9999.9
330 9999.9
335 2973.01
340 371.828
345 62.9865
350 22.2538
355 14.742
360 14.1755
365 15.3195
370 15.2202
375 12.0195
380 9.01264
385 8.36474
390 8.16592
395 7.58559
400 7.13509
405 6.94523
410 6.50613
415 6.63308
420 6.13627
425 6.13655
430 6.07901
435 5.77527
440 5.81986
445 5.48849
450 5.51533
455 5.5052
460 5.74333
465 5.61786
470 5.46397
475 5.3507
480 5.29372
485 4.89539
490 4.98008
495 5.06451
500 5.00264
505 4.82752
510 4.63599
515 4.75551
520 4.60265
525 4.59979
530 4.69523
535 4.67155
540 4.87846
545 4.70029
550 4.98489
555 4.76075
560 4.75618
565 5.1262
570 5.28376
575 5.17527
580 5.38338
585 5.89578
590 6.07822
595 6.25726
600 7.20153
Ex : 338
200 1.34596
205 1.38965
210 1.50419
215 1.55632
220 1.60894
225 1.4688
230 1.53783
235 1.69552
240 1.71047
245 1.95334
250 1.91666
255 1.92041
260 2.19496
265 1.93067
270 2.26989
275 2.49852
280 2.60059
285 2.88466
290 3.36932
295 3.94759
300 4.54064
305 6.11805
310 8.26802
315 11.8932
320 20.8066
325 804.242
330 9999.9
335 9999.9
340 3050.92
345 380.21
350 64.2459
355 22.0713
360 14.675
365 13.4942
370 14.7056
375 14.73
380 12.925
385 9.63861
390 8.37169
395 7.55496
400 7.36969
405 6.94155
410 6.7141
415 6.50129
420 6.39977
425 5.91926
430 5.95667
435 5.96748
440 5.79714
445 5.83066
450 5.62992
455 5.56646
460 5.43895
465 5.23126
470 5.267
475 5.22657
480 5.06172
485 4.82814
490 4.80531
495 4.7243
500 4.62097
505 4.54786
510 4.25742
515 4.22059
520 4.3616
525 4.42072
530 4.19586
535 4.22364
540 4.25239
545 4.45888
550 4.25979
555 4.48179
560 4.5653
565 4.73352
570 4.70023
575 4.69432
580 4.6022
585 5.00178
590 4.95292
595 5.17969
600 7.63348
Ex : 343
200 1.27224
205 1.31294
210 1.26753
215 1.48426
220 1.44795
225 1.65635
230 1.41044
235 1.68646
240 1.6469
245 1.59652
250 1.72447
255 1.96797
260 1.8889
265 2.02545
270 2.15652
275 2.36807
280 2.41997
285 2.73129
290 3.18586
295 3.33084
300 4.06908
305 5.06664
310 6.14655
315 8.61367
320 12.6498
325 21.7972
330 778.161
335 9999.9
340 9999.9
345 3188.71
350 397.299
355 66.0466
360 22.125
365 15.1779
370 12.9218
375 13.5678
380 14.3667
385 13.121
390 10.3643
395 8.39797
400 7.66866
405 7.06529
410 6.86014
415 6.78034
420 6.7651
425 6.44137
430 5.94921
435 5.97688
440 5.73845
445 5.55771
450 5.66094
455 5.46956
460 5.18577
465 5.32401
470 5.38932
475 4.84399
480 4.89266
485 5.01803
490 4.77514
495 4.67642
500 4.40594
505 4.37016
510 4.24389
515 4.2078
520 4.26367
525 3.87501
530 4.09368
535 4.1623
540 4.10784
545 3.98772
550 3.91166
555 4.06236
560 4.08918
565 4.19498
570 3.97338
575 3.98986
580 4.12548
585 4.07938
590 3.99379
595 4.4511
600 5.58205
Ex : 348
200 1.20403
205 1.14327
210 1.33134
215 1.34517
220 1.55715
225 1.51388
230 1.41502
235 1.38583
240 1.42753
245 1.66155
250 1.74358
255 1.75186
260 1.68096
265 1.92659
270 2.15438
275 2.0629
280 2.53801
285 2.4598
290 2.52571
295 2.97149
300 3.46432
305 4.37878
310 5.03743
315 6.31062
320 8.53247
325 12.6621
330 22.7307
335 753.626
340 9999.9
345 9999.9
350 3570.62
355 441.479
360 70.9886
365 22.0727
370 14.4224
375 12.6278
380 12.4254
385 14.0811
390 13.7963
395 10.5996
400 8.65434
405 7.58844
410 7.12976
415 6.80279
420 6.38555
425 6.25572
430 5.8876
435 5.69525
440 5.59491
445 5.53646
450 5.22186
455 5.36407
460 5.14997
465 5.15596
470 4.98661
475 4.84061
480 4.68646
485 4.54592
490 4.52904
495 4.39359
500 4.1165
505 4.30507
510 4.08292
515 3.70999
520 3.66746
525 3.59955
530 3.62668
535 3.54219
540 3.80445
545 3.70685
550 4.13048
555 3.81931
560 3.79299
565 3.56454
570 3.40298
575 3.4825
580 3.60733
585 3.74304
590 3.82221
595 3.89339
600 2.82204
Ex : 353
200 1.28803
205 1.37302
210 1.40013
215 1.2391
220 1.20287
225 1.30709
230 1.22776
235 1.27298
240 1.3655
245 1.5096
250 1.57168
255 1.57399
260 1.71288
265 1.82431
270 1.86229
275 2.18181
280 2.1133
285 2.28774
290 2.41912
295 2.76205
300 3.0842
305 3.38683
310 4.16825
315 5.10905
320 6.68968
325 8.83276
330 12.9387
335 22.5741
340 800.581
345 9999.9
350 9999.9
355 3491.15
360 431.698
365 70.2434
370 22.9356
375 15.001
380 12.0653
385 11.6676
390 13.694
395 13.6722
400 11.6073
405 8.81702
410 7.53162
415 7.24078
420 6.54004
425 6.09827
430 6.02984
435 6.00784
440 5.65556
445 5.61676
450 5.81054
455 5.40055
460 5.40362
465 5.18702
470 5.14135
475 4.94195
480 4.54861
485 4.70974
490 4.48355
495 4.42491
500 4.30538
505 4.08599
510 3.77965
515 3.8369
520 3.72789
525 3.66933
530 3.4806
535 3.36305
540 3.44204
545 3.4546
550 3.50245
555 3.46794
560 3.08063
565 3.23421
570 3.38022
575 3.50482
580 3.32901
585 3.24732
590 3.34521
595 3.43945
600 3.41562
Ex : 358
200 1.18266
205 1.2658
210 1.22775
215 1.14046
220 1.14545
225 1.1772
230 1.28578
235 1.26837
240 1.23692
245 1.48265
250 1.49807
255 1.46312
260 1.51934
265 1.812
270 1.55366
275 1.73662
280 2.0285
285 2.22081
290 2.38067
295 2.7022
300 2.65317
305 3.06265
310 3.73341
315 4.18325
320 5.23077
325 6.23403
330 9.0791
335 13.4357
340 23.2559
345 784.577
350 9999.9
355 9999.9
360 3624.43
365 447.096
370 71.6811
375 23.3499
380 14.551
385 11.8378
390 11.0645
395 13.1491
400 13.5402
405 12.0151
410 9.1863
415 7.42986
420 6.92391
425 6.36706
430 6.28026
435 6.06057
440 5.86895
445 5.47447
450 5.21725
455 5.41493
460 5.15434
465 5.24429
470 5.0775
475 4.88835
480 4.89815
485 4.30683
490 4.21876
495 3.94459
500 4.26573
505 3.90357
510 3.93014
515 3.58533
520 3.56453
525 3.34387
530 3.29769
535 3.27781
540 3.1057
545 3.18368
550 3.1675
555 3.24662
560 3.30177
565 3.16745
570 2.9998
575 3.1322
580 2.93844
585 2.79028
590 2.8778
595 2.79929
600 2.71167
Ex : 363
200 1.15187
205 1.05806
210 1.057
215 1.11406
220 1.06026
225 1.09142
230 1.12902
235 1.24607
240 1.21589
245 1.27178
250 1.31496
255 1.40135
260 1.46253
265 1.33107
270 1.56756
275 1.70807
280 1.78123
285 1.80253
290 2.1078
295 2.18583
300 2.54607
305 2.8707
310 3.10097
315 3.48795
320 4.21944
325 5.24718
330 6.79675
335 9.14011
340 13.2536
345 22.5612
350 730.537
355 9999.9
360 9999.9
365 3813.55
370 470.373
375 74.8729
380 22.9548
385 14.3996
390 11.9313
395 10.1734
400 12.021
405 12.9096
410 12.3688
415 9.69909
420 7.41331
425 6.67385
430 6.38627
435 5.9721
440 5.93237
445 5.56797
450 5.30658
455 5.41976
460 5.17279
465 5.29298
470 4.91352
475 4.57538
480 4.42587
485 4.24646
490 4.14615
495 3.96657
500 3.8315
505 3.86564
510 3.578
515 3.4947
520 3.34084
525 3.13424
530 3.0868
535 2.94531
540 3.03972
545 2.81564
550 2.87211
555 2.77085
560 2.95389
565 2.77483
570 2.76688
575 2.92261
580 2.71377
585 2.47424
590 2.59574
595 2.56173
600 2.87686
Ex : 368
200 1.21629
205 1.1979
210 1.25678
215 1.13497
220 1.13267
225 1.02158
230 1.07939
235 1.17988
240 1.21853
245 1.18198
250 1.31771
255 1.30593
260 1.29075
265 1.36551
270 1.41984
275 1.74571
280 1.65268
285 1.8863
290 1.85197
295 2.0559
300 2.21225
305 2.52835
310 2.64433
315 2.93569
320 3.76795
325 4.38013
330 5.22718
335 6.78239
340 8.83571
345 13.3108
350 22.1832
355 625.199
360 9999.9
365 9999.9
370 4176.87
375 513.831
380 80.2968
385 24.4109
390 15.1047
395 12.2169
400 9.95153
405 10.6701
410 11.8908
415 11.6127
420 10.051
425 7.77131
430 6.61599
435 6.17157
440 5.90643
445 5.71467
450 5.86827
455 5.1898
460 5.00068
465 5.16239
470 4.78345
475 4.54783
480 4.41783
485 4.0597
490 4.01425
495 3.72268
500 3.54421
505 3.48923
510 3.34563
515 3.37279
520 3.16267
525 3.31258
530 2.89922
535 2.8392
540 2.88607
545 2.81161
550 2.67159
555 2.82724
560 2.63209
565 2.61797
570 2.48889
575 2.43582
580 2.57688
585 2.36209
590 2.27828
595 2.27328
600 2.37043
Ex : 373
200 1.01695
205 1.1004
210 1.11541
215 1.11923
220 1.14402
225 1.16308
230 1.18583
235 1.10358
240 1.14876
245 1.20964
250 1.1308
255 1.32641
260 1.22197
265 1.39264
270 1.42381
275 1.50839
280 1.50394
285 1.65639
290 1.86318
295 2.00596
300 2.09841
305 2.28669
310 2.43755
315 2.79992
320 3.34239
325 3.67418
330 4.47416
335 5.63826
340 6.89137
345 9.26875
350 13.4335
355 22.9853
360 759.875
365 9999.9
370 9999.9
375 4179.62
380 512.475
385 79.2033
390 24.5185
395 14.9595
400 11.9201
405 9.69293
410 10.0263
415 11.3958
420 11.7747
425 10.3054
430 8.26686
435 6.70385
440 6.48376
445 5.98061
450 5.72931
455 5.41448
460 5.18945
465 5.30548
470 4.68705
475 4.49277
480 4.2286
485 3.95913
490 3.93433
495 3.90557
500 3.68871
505 3.44485
510 3.39202
515 3.29813
520 3.1261
525 3.0659
530 2.92186
535 2.81451
540 2.81518
545 2.83134
550 2.80031
555 2.6396
560 2.47333
565 2.4354
570 2.48437
575 2.25018
580 2.41162
585 2.25929
590 2.2812
595 2.0486
600 2.17477
Ex : 378
200 0.967464
205 0.899802
210 0.979812
215 0.998842
220 1.05751
225 1.05729
230 1.02139
235 1.10073
240 1.11673
245 1.0847
250 1.11532
255 1.14768
260 1.15719
265 1.36537
270 1.38852
275 1.54733
280 1.66792
285 1.58409
290 1.76397
295 1.75319
300 2.01595
305 2.10608
310 2.16708
315 2.55908
320 2.6544
325 3.09974
330 3.71156
335 4.44205
340 5.36583
345 6.97779
350 9.37287
355 13.492
360 23.2596
365 736.263
370 9999.9
375 9999.9
380 4200.65
385 515.522
390 80.6333
395 24.6049
400 14.9205
405 11.776
410 9.12181
415 9.27727
420 10.9233
425 11.0516
430 10.2984
435 8.32469
440 6.49919
445 6.30721
450 5.752
455 5.46207
460 5.40605
465 5.36569
470 5.14293
475 4.4552
480 4.48925
485 4.2951
490 4.26598
495 3.83663
500 3.65761
505 3.32877
510 3.40963
515 3.19916
520 2.93637
525 2.97174
530 2.84005
535 2.64292
540 2.71794
545 2.50616
550 2.51319
555 2.58171
560 2.35142
565 2.31255
570 2.23856
575 2.11234
580 2.11928
585 1.99219
590 1.93306
595 1.98006
600 2.14788
Ex : 383
200 0.979559
205 1.00951
210 0.904492
215 1.09432
220 1.07366
225 0.905105
230 1.02086
235 1.20808
240 1.09966
245 0.986093
250 1.05113
255 1.1759
260 1.1756
265 1.2197
270 1.28659
275 1.21328
280 1.32076
285 1.44006
290 1.57838
295 1.7505
300 1.87033
305 1.952
310 1.95389
315 2.32306
320 2.51108
325 3.05616
330 3.08181
335 3.68122
340 4.43133
345 5.56369
350 6.83783
355 9.22909
360 13.7742
365 23.1084
370 692.363
375 9999.9
380 9999.9
385 4471.84
390 548.809
395 84.0311
400 24.9455
405 15.2092
410 11.5061
415 9.40633
420 8.78644
425 9.95746
430 10.6096
435 10.2193
440 8.48595
445 6.88215
450 6.03479
455 5.639
460 5.33322
465 5.28238
470 4.81206
475 4.40476
480 4.49709
485 4.32866
490 3.98318
495 3.39321
500 3.55107
505 3.3903
510 3.26972
515 2.87331
520 2.97626
525 2.97025
530 2.8766
535 2.75625
540 2.67789
545 2.47698
550 2.40815
555 2.48548
560 2.27653
565 2.16857
570 2.0586
575 2.12439
580 2.03107
585 1.88509
590 1.91905
595 1.78832
600 1.743
Ex : 388
200 0.912555
205 0.950093
210 0.922172
215 1.05448
220 1.01611
225 0.993418
230 1.08622
235 1.14141
240 1.00757
245 0.978572
250 1.03733
255 1.1548
260 1.1524
265 1.1194
270 1.38114
275 1.44951
280 1.39988
285 1.46295
290 1.43807
295 1.45492
300 1.82367
305 1.89938
310 2.15178
315 2.29192
320 2.24406
325 2.58827
330 2.88547
335 3.39271
340 3.82317
345 4.46049
350 5.86038
355 7.16641
360 9.80273
365 13.9554
370 23.7359
375 755.74
380 9999.9
385 9999.9
390 4552.28
395 557.016
400 85.0698
405 25.1822
410 15.3831
415 11.52
420 9.06341
425 8.1475
430 9.26524
435 10.4766
440 10.3601
445 9.21377
450 7.32487
455 6.21215
460 5.71068
465 5.62996
470 4.88385
475 4.79735
480 4.51966
485 4.09291
490 3.99161
495 3.81078
500 3.48421
505 3.39755
510 3.31128
515 2.98931
520 2.92545
525 2.70988
530 2.79155
535 2.60868
540 2.6548
545 2.58761
550 2.39909
555 2.27601
560 2.18681
565 2.14502
570 2.09331
575 2.0631
580 2.02877
585 1.90119
590 1.72373
595 1.68823
600 2.62246
Ex : 393
200 1.04251
205 0.981713
210 1.11019
215 1.01041
220 1.05779
225 0.992668
230 1.07142
235 1.0344
240 1.09713
245 1.1275
250 1.08655
255 1.16718
260 1.22402
265 1.26223
270 1.17909
275 1.33911
280 1.34755
285 1.51331
290 1.4856
295 1.53038
300 1.6942
305 1.92644
310 1.97663
315 2.21767
320 2.33287
325 2.56321
330 2.75287
335 2.98548
340 3.57411
345 4.09369
350 4.81449
355 5.92799
360 7.44238
365 9.84388
370 14.8471
375 24.6687
380 708.878
385 9999.9
390 9999.9
395 4823.1
400 589.96
405 89.1826
410 25.611
415 15.1928
420 11.3582
425 8.87184
430 7.98597
435 8.36848
440 9.92077
445 9.97062
450 9.5085
455 7.45868
460 6.33193
465 5.68725
470 5.11762
475 4.68312
480 4.66999
485 4.25106
490 3.98936
495 3.77635
500 3.52751
505 3.39771
510 3.23121
515 3.0385
520 2.85433
525 2.73862
530 2.64305
535 2.59835
540 2.7026
545 2.57048
550 2.51509
555 2.41177
560 2.33583
565 2.08406
570 2.06129
575 1.86258
580 1.8393
585 1.80313
590 1.87017
595 1.68831
600 1.10675
Ex : 398
200 0.941504
205 0.92005
210 0.960269
215 1.01478
220 1.02555
225 0.97501
230 0.972055
235 1.13333
240 1.08817
245 1.07585
250 1.02039
255 1.06554
260 1.22653
265 1.2737
270 1.27481
275 1.33753
280 1.21992
285 1.38534
290 1.52943
295 1.47363
300 1.53552
305 1.74923
310 1.92379
315 1.93536
320 2.09475
325 2.31891
330 2.64411
335 2.84484
340 3.08092
345 3.41507
350 4.08841
355 5.06945
360 6.1222
365 7.44301
370 10.2476
375 14.6286
380 24.4752
385 752.653
390 9999.9
395 9999.9
400 4994.59
405 608.414
410 91.1724
415 25.3765
420 14.7587
425 11.0993
430 8.99683
435 7.96939
440 8.15273
445 9.59962
450 9.91211
455 9.28733
460 7.99616
465 6.49888
470 5.56664
475 5.01452
480 4.41133
485 4.57486
490 4.08366
495 3.7921
500 3.55035
505 3.52025
510 3.24731
515 3.22608
520 3.09171
525 2.81617
530 2.77743
535 2.54831
540 2.60567
545 2.53171
550 2.38865
555 2.2207
560 2.2552
565 2.12359
570 1.96622
575 1.97353
580 1.87343
585 1.81038
590 1.76293
595 1.77309
600 3.10724
Ex : 403
200 1.01136
205 0.904194
210 0.868378
215 0.93316
220 0.961394
225 1.037
230 1.07719
235 1.03039
240 1.12627
245 1.10483
250 1.1166
255 1.1161
260 1.18077
265 1.17172
270 1.11295
275 1.20793
280 1.37352
285 1.39705
290 1.47128
295 1.5734
300 1.64487
305 1.71705
310 1.82196
315 1.99939
320 2.06582
325 2.16687
330 2.25124
335 2.64797
340 3.0356
345 3.32582
350 3.50063
355 4.18565
360 4.8664
365 6.01137
370 7.68946
375 10.3889
380 15.1999
385 25.6458
390 827.537
395 9999.9
400 9999.9
405 5089.31
410 619.007
415 92.6102
420 25.6631
425 14.9028
430 11.2403
435 8.68079
440 7.72909
445 7.67277
450 9.18618
455 9.58099
460 9.55195
465 8.44554
470 6.51466
475 5.38459
480 4.72796
485 4.37351
490 4.22321
495 3.83119
500 3.78278
505 3.49134
510 3.32868
515 3.23151
520 2.99969
525 2.88748
530 2.89273
535 2.84219
540 2.67758
545 2.45852
550 2.31175
555 2.29809
560 2.14093
565 2.21274
570 1.90887
575 1.8844
580 1.7513
585 1.74234
590 1.71573
595 1.59268
600 2.0598
Ex : 408
200 0.927841
205 0.894634
210 0.937503
215 0.961469
220 0.942993
225 1.0148
230 0.888747
235 1.04404
240 1.091
245 1.09959
250 1.06326
255 1.16483
260 1.14032
265 1.21834
270 1.22689
275 1.27587
280 1.32271
285 1.40621
290 1.40302
295 1.53601
300 1.45792
305 1.6623
310 1.74488
315 1.92433
320 2.00496
325 2.16903
330 2.30809
335 2.48635
340 2.75454
345 3.07069
350 3.37008
355 3.81707
360 4.26337
365 5.06325
370 6.21989
375 8.28663
380 10.685
385 16.1258
390 27.6402
395 844.522
400 9999.9
405 9999.9
410 4964.12
415 605.138
420 90.8958
425 25.416
430 14.9298
435 11.5426
440 8.99589
445 7.71348
450 7.59971
455 8.71602
460 9.50558
465 9.31822
470 8.4184
475 6.6275
480 5.1541
485 4.61045
490 4.39959
495 4.06027
500 3.83776
505 3.47605
510 3.37918
515 3.20366
520 3.14917
525 2.90672
530 2.78849
535 2.61087
540 2.5253
545 2.50776
550 2.41483
555 2.39906
560 2.3413
565 2.09574
570 1.96896
575 1.88213
580 1.78594
585 1.77435
590 1.72496
595 1.68201
600 1.57777
Ex : 413
200 0.843896
205 0.948927
210 0.813255
215 0.967517
220 1.0024
225 1.00414
230 0.905818
235 0.908814
240 0.94823
245 1.0131
250 0.951309
255 1.07485
260 1.2408
265 1.31477
270 1.20108
275 1.16785
280 1.27295
285 1.31063
290 1.30896
295 1.51525
300 1.43146
305 1.51436
310 1.5799
315 1.78115
320 1.85951
325 2.06151
330 2.20569
335 2.47786
340 2.62118
345 2.88207
350 3.22376
355 3.5322
360 3.82534
365 4.61067
370 5.34484
375 6.44274
380 8.11973
385 11.3555
390 17.3286
395 28.4738
400 954.878
405 9999.9
410 9999.9
415 4916.75
420 598.356
425 90.0344
430 25.4915
435 14.9862
440 11.803
445 9.27985
450 8.02478
455 7.54878
460 8.27658
465 9.28587
470 8.98712
475 8.22941
480 6.85936
485 5.51735
490 4.62941
495 4.36537
500 3.97936
505 3.73427
510 3.48343
515 3.38932
520 3.08312
525 3.11557
530 3.02581
535 2.79787
540 2.53358
545 2.57503
550 2.56986
555 2.48005
560 2.34023
565 2.35215
570 2.15413
575 1.92048
580 1.84649
585 1.80202
590 1.72363
595 1.64125
600 0.741546
Ex : 418
200 0.855789
205 0.93674
210 0.926975
215 0.924899
220 0.981406
225 0.957126
230 1.10634
235 0.950088
240 1.01566
245 1.05359
250 1.1656
255 1.11832
260 1.20729
265 1.19942
270 1.11394
275 1.25389
280 1.11891
285 1.3
290 1.36874
295 1.44048
300 1.38728
305 1.53409
310 1.73475
315 1.71005
320 1.85589
325 1.92236
330 2.18522
335 2.34182
340 2.40948
345 2.53999
350 2.86452
355 3.14481
360 3.48497
365 4.14559
370 4.54873
375 5.50869
380 6.90036
385 8.64084
390 11.6008
395 17.2428
400 28.8027
405 899.367
410 9999.9
415 9999.9
420 5213.47
425 633.153
430 94.2949
435 26.3812
440 15.1339
445 11.6817
450 8.97739
455 8.14409
460 7.52291
465 7.94462
470 8.63658
475 8.66772
480 7.95307
485 7.1036
490 5.54886
495 4.49383
500 4.14945
505 3.74966
510 3.66898
515 3.44335
520 3.10609
525 3.12441
530 2.89568
535 2.86756
540 2.72438
545 2.71261
550 2.45692
555 2.49875
560 2.48561
565 2.24063
570 2.15993
575 1.96936
580 1.88388
585 1.83091
590 1.7104
595 1.60814
600 1.11978
Ex : 423
200 1.02039
205 0.919781
210 0.897
215 0.888604
220 1.04543
225 0.960633
230 0.963699
235 0.931119
240 1.03172
245 0.975452
250 1.06166
255 1.06002
260 1.10347
265 1.07748
270 1.21515
275 1.24195
280 1.18251
285 1.24936
290 1.3412
295 1.37403
300 1.48129
305 1.52622
310 1.57026
315 1.76368
320 1.8185
325 1.88887
330 1.94903
335 2.26162
340 2.27928
345 2.52768
350 2.8037
355 3.08261
360 3.26284
365 3.46868
370 4.01138
375 4.76045
380 5.92691
385 7.21107
390 9.05264
395 12.4759
400 17.8507
405 29.4329
410 954.948
415 9999.9
420 9999.9
425 5098.94
430 620.78
435 93.2736
440 25.9478
445 15.5315
450 12.1051
455 9.41031
460 8.33077
465 7.80884
470 7.36535
475 8.37174
480 8.42293
485 7.68181
490 7.44095
495 5.67575
500 4.79999
505 4.04306
510 3.67087
515 3.64728
520 3.19062
525 3.19921
530 3.08467
535 2.8519
540 2.76606
545 2.61171
550 2.5757
555 2.41557
560 2.28081
565 2.09857
570 1.99227
575 1.96701
580 1.78646
585 1.71911
590 1.61481
595 1.54917
600 1.93789
Ex : 428
200 0.899743
205 0.903947
210 0.937338
215 0.89029
220 0.955498
225 0.896291
230 0.856252
235 0.945132
240 0.989964
245 1.11058
250 0.945598
255 1.10188
260 0.987897
265 1.12928
270 1.25107
275 1.37712
280 1.22623
285 1.30764
290 1.26635
295 1.29239
300 1.41125
305 1.44677
310 1.60552
315 1.60185
320 1.71675
325 1.91144
330 1.96942
335 2.0716
340 2.28846
345 2.40714
350 2.76747
355 2.83812
360 2.9772
365 3.49582
370 3.85333
375 4.31626
380 4.7471
385 6.01695
390 7.47175
395 9.61618
400 12.8678
405 18.5425
410 30.2652
415 1048.02
420 9999.9
425 9999.9
430 5264.23
435 639.711
440 95.7569
445 27.531
450 16.4672
455 12.1985
460 9.565
465 8.38388
470 7.47011
475 7.22506
480 7.87091
485 8.15457
490 7.77056
495 7.31564
500 6.10625
505 4.73237
510 4.01984
515 3.71987
520 3.4956
525 3.31263
530 3.18388
535 2.86425
540 2.74055
545 2.59262
550 2.61749
555 2.38895
560 2.39811
565 2.2311
570 2.21792
575 1.95249
580 1.94702
585 1.72021
590 1.60906
595 1.53911
600 2.44235
Ex : 433
200 0.896052
205 0.958647
210 0.884713
215 0.845395
220 0.950947
225 1.05004
230 0.942817
235 0.998653
240 1.14772
245 0.942114
250 1.07252
255 1.16765
260 1.08328
265 1.08721
270 1.07937
275 1.23558
280 1.34385
285 1.42585
290 1.32895
295 1.22409
300 1.35009
305 1.41988
310 1.55819
315 1.56015
320 1.64792
325 1.82797
330 1.92282
335 2.00161
340 2.12958
345 2.36148
350 2.5197
355 2.78365
360 2.92034
365 3.32835
370 3.47089
375 3.93525
380 4.21614
385 5.12345
390 6.45747
395 7.65214
400 9.61056
405 13.3
410 19.4089
415 31.8867
420 1143.17
425 9999.9
430 9999.9
435 5049.04
440 615.002
445 94.1522
450 27.2871
455 16.6746
460 12.7527
465 9.8597
470 8.22251
475 7.34236
480 6.93341
485 7.07734
490 8.05357
495 7.41097
500 6.65592
505 5.9639
510 5.0274
515 3.98904
520 3.59199
525 3.30961
530 3.15563
535 2.99904
540 2.80926
545 2.62074
550 2.57064
555 2.73391
560 2.38735
565 2.24364
570 2.04623
575 2.03242
580 1.79423
585 1.6997
590 1.71939
595 1.579
600 1.47645
Ex : 438
200 0.995148
205 1.00539
210 1.00097
215 0.976234
220 1.0251
225 1.0082
230 1.02177
235 0.944292
240 0.889097
245 0.970748
250 1.13375
255 0.994221
260 1.05561
265 1.10576
270 1.18233
275 1.27634
280 1.32214
285 1.38307
290 1.33435
295 1.37305
300 1.39197
305 1.48599
310 1.49859
315 1.62557
320 1.62089
325 1.81333
330 1.93606
335 2.0027
340 2.14003
345 2.331
350 2.32771
355 2.52649
360 2.79471
365 2.91957
370 3.26625
375 3.72917
380 4.26809
385 4.59713
390 5.38312
395 6.9315
400 7.6865
405 9.94208
410 13.1594
415 19.4699
420 31.0737
425 1095.98
430 9999.9
435 9999.9
440 5247.07
445 640.006
450 97.6831
455 28.0226
460 17.1528
465 13.3985
470 10.0677
475 8.05245
480 7.38181
485 6.85256
490 6.81042
495 7.45523
500 7.3447
505 6.52503
510 6.07945
515 5.28278
520 4.12258
525 3.59319
530 3.16302
535 3.19998
540 2.82391
545 2.87533
550 2.62866
555 2.44668
560 2.38416
565 2.45059
570 2.16894
575 2.03997
580 1.93672
585 1.69295
590 1.70728
595 1.5288
600 1.9686
Ex : 443
200 0.975932
205 0.951068
210 0.994735
215 0.988669
220 0.988902
225 1.03284
230 1.01183
235 0.985989
240 1.01546
245 1.10897
250 1.12266
255 1.06985
260 1.07595
265 1.1103
270 1.0983
275 1.15486
280 1.33694
285 1.51166
290 1.34403
295 1.25993
300 1.51037
305 1.42282
310 1.65238
315 1.60145
320 1.60271
325 1.658
330 1.85431
335 2.02727
340 2.11994
345 2.19975
350 2.27349
355 2.61685
360 2.69176
365 2.97208
370 3.27421
375 3.57902
380 3.91653
385 4.18236
390 4.85461
395 5.56201
400 6.80582
405 8.36424
410 10.6161
415 13.9604
420 19.9319
425 33.1187
430 1213.5
435 9999.9
440 9999.9
445 5347.93
450 651.681
455 99.6055
460 29.3203
465 18.5401
470 13.6257
475 9.48705
480 8.23276
485 7.49773
490 6.8804
495 6.8215
500 7.14821
505 7.36533
510 6.74545
515 6.15102
520 5.31632
525 4.10796
530 3.55042
535 3.19408
540 3.18304
545 2.943
550 2.82858
555 2.65138
560 2.43129
565 2.32903
570 2.14702
575 2.13295
580 1.99213
585 1.91423
590 1.77737
595 1.75824
600 1.59554
Ex : 448
200 1.02924
205 1.05013
210 1.03897
215 0.971155
220 1.06395
225 1.11147
230 1.01336
235 1.08125
240 1.12233
245 1.01241
250 1.08774
255 1.10576
260 1.05912
265 1.22531
270 1.20419
275 1.16998
280 1.26028
285 1.26781
290 1.42461
295 1.36431
300 1.51273
305 1.52038
310 1.60159
315 1.57941
320 1.71986
325 1.68739
330 1.9558
335 1.88655
340 2.10205
345 2.13966
350 2.41243
355 2.38756
360 2.66666
365 2.87278
370 3.14087
375 3.3362
380 3.58417
385 3.85949
390 4.58923
395 5.11386
400 5.90832
405 6.86806
410 8.48423
415 10.7117
420 14.4085
425 20.5369
430 33.1803
435 1255.86
440 9999.9
445 9999.9
450 5346.17
455 651.927
460 100.544
465 30.2398
470 17.9347
475 12.9507
480 9.70267
485 7.80465
490 7.40624
495 6.72906
500 6.5125
505 6.46413
510 7.17613
515 6.27369
520 5.82953
525 5.36276
530 4.49013
535 3.52978
540 3.12339
545 2.99611
550 2.87762
555 2.58261
560 2.65523
565 2.46778
570 2.43767
575 2.11721
580 2.20649
585 2.03515
590 1.87454
595 1.89821
600 2.19679
Ex : 453
200 0.960434
205 0.986188
210 1.02205
215 1.0955
220 1.08858
225 1.10425
230 1.05807
235 1.01483
240 1.13675
245 1.02874
250 1.05356
255 1.06957
260 1.04072
265 1.09772
270 1.23676
275 1.21869
280 1.22289
285 1.29004
290 1.45546
295 1.4385
300 1.36907
305 1.52599
310 1.59435
315 1.56604
320 1.61578
325 1.90331
330 1.70462
335 1.94225
340 2.05002
345 1.98775
350 2.17038
355 2.33119
360 2.46774
365 2.57506
370 2.91363
375 3.05976
380 3.40428
385 3.74432
390 4.04298
395 4.40662
400 4.85894
405 5.85852
410 6.73589
415 8.11211
420 10.518
425 13.8081
430 20.1539
435 32.9743
440 1312.19
445 9999.9
450 9999.9
455 5213.44
460 638.132
465 99.9158
470 29.9425
475 16.9806
480 12.5515
485 9.23023
490 7.83378
495 7.22454
500 6.80311
505 6.4733
510 6.25465
515 6.62929
520 6.27274
525 5.83364
530 5.42919
535 4.51008
540 3.7247
545 3.1389
550 2.96197
555 2.78665
560 2.6494
565 2.50204
570 2.36799
575 2.15015
580 2.10985
585 2.0275
590 1.73713
595 1.638
600 1.88195
Ex : 458
200 1.06768
205 1.10293
210 1.05195
215 1.02068
220 1.14874
225 1.08039
230 1.01574
235 1.11293
240 1.13849
245 1.13998
250 1.10129
255 1.26404
260 1.08455
265 1.25052
270 1.18699
275 1.21383
280 1.26809
285 1.46912
290 1.39674
295 1.50907
300 1.59147
305 1.55046
310 1.62413
315 1.71573
320 1.75688
325 1.77292
330 1.84418
335 1.83915
340 2.03251
345 2.13209
350 2.28745
355 2.52036
360 2.58072
365 2.63479
370 2.83722
375 2.95728
380 3.44198
385 3.65428
390 4.088
395 4.14093
400 4.86708
405 5.15176
410 6.15213
415 7.07135
420 8.51756
425 10.7427
430 14.4635
435 21.4356
440 34.6276
445 1459.11
450 9999.9
455 9999.9
460 5569.68
465 681.501
470 104.49
475 29.364
480 17.3405
485 12.5841
490 9.50494
495 7.67263
500 7.24206
505 6.81721
510 6.48736
515 6.04405
520 6.40444
525 6.35104
530 5.85132
535 5.21154
540 4.77549
545 3.8229
550 3.311
555 2.97394
560 2.81973
565 2.71971
570 2.47113
575 2.38309
580 2.08386
585 2.05171
590 1.92711
595 1.87553
600 1.46556
Ex : 463
200 1.17351
205 1.04111
210 1.06685
215 1.0079
220 1.14147
225 1.24402
230 1.16794
235 1.23563
240 1.13884
245 1.14999
250 1.18798
255 1.11227
260 1.17056
265 1.17117
270 1.24346
275 1.13625
280 1.27926
285 1.21469
290 1.31801
295 1.42648
300 1.56254
305 1.64671
310 1.66538
315 1.7491
320 1.76745
325 1.73102
330 1.88049
335 1.94957
340 1.9407
345 2.07692
350 2.1966
355 2.34908
360 2.42585
365 2.47594
370 2.717
375 3.05166
380 3.09943
385 3.29932
390 3.62601
395 3.97572
400 4.34789
405 4.94618
410 5.36392
415 6.1531
420 7.27774
425 8.44515
430 10.7171
435 14.2618
440 20.9574
445 35.7739
450 1438.06
455 9999.9
460 9999.9
465 5729.47
470 699.65
475 104.927
480 29.3366
485 16.8012
490 12.6489
495 8.88931
500 7.49512
505 7.07298
510 6.74517
515 6.18627
520 5.783
525 5.79904
530 6.0948
535 5.52071
540 4.88569
545 4.7965
550 4.05728
555 3.33048
560 3.08432
565 2.80966
570 2.62355
575 2.39935
580 2.25377
585 2.07845
590 1.95692
595 1.82241
600 1.38577
Ex : 468
200 0.947613
205 1.02687
210 1.07337
215 1.17269
220 1.16187
225 1.2332
230 1.27267
235 1.07341
240 1.06672
245 1.13839
250 1.15214
255 1.23823
260 1.2307
265 1.14904
270 1.24991
275 1.28634
280 1.29225
285 1.32039
290 1.38478
295 1.41993
300 1.48626
305 1.61397
310 1.62616
315 1.71075
320 1.78319
325 1.78718
330 1.76582
335 1.85603
340 2.09944
345 2.24309
350 2.22593
355 2.19701
360 2.43555
365 2.49971
370 2.77607
375 2.88302
380 3.13997
385 3.15521
390 3.56887
395 3.70716
400 3.92872
405 4.30962
410 4.748
415 5.34442
420 5.83338
425 7.23509
430 8.13015
435 10.4098
440 13.8902
445 21.2783
450 35.2026
455 1539.36
460 9999.9
465 9999.9
470 5920.99
475 715.795
480 105.691
485 28.6378
490 16.2975
495 11.856
500 8.87498
505 7.32424
510 6.86785
515 6.60825
520 6.06392
525 5.71401
530 5.57542
535 5.77073
540 5.56627
545 4.94718
550 4.53673
555 4.1487
560 3.39509
565 3.01718
570 2.59881
575 2.63343
580 2.19808
585 2.19119
590 2.14008
595 1.98666
600 1.86023
Ex : 473
200 1.24983
205 1.06953
210 1.03504
215 1.06215
220 1.13568
225 1.19336
230 1.56017
235 1.40017
240 1.1554
245 1.13451
250 1.27167
255 1.28953
260 1.25821
265 1.25208
270 1.27274
275 1.28354
280 1.41184
285 1.36771
290 1.39606
295 1.33487
300 1.53779
305 1.59894
310 1.63849
315 1.70689
320 1.71526
325 1.85207
330 1.81416
335 1.84281
340 1.95824
345 2.12711
350 2.181
355 2.21462
360 2.17842
365 2.411
370 2.55165
375 2.86475
380 3.01025
385 3.30478
390 3.43376
395 3.56171
400 3.99806
405 4.28485
410 4.68223
415 4.86556
420 5.53356
425 6.22239
430 7.15767
435 8.57421
440 10.8784
445 14.9794
450 22.0002
455 37.115
460 1671.65
465 9999.9
470 9999.9
475 5645.66
480 683.901
485 101.815
490 28.1983
495 16.1169
500 11.781
505 8.65069
510 7.55257
515 6.773
520 6.44169
525 6.07246
530 5.81662
535 5.29378
540 5.40411
545 5.54037
550 4.85521
555 4.4282
560 4.11106
565 3.43431
570 2.94301
575 2.62902
580 2.6027
585 2.40587
590 2.22271
595 2.19474
600 1.58942
Ex : 478
200 1.20796
205 1.15904
210 1.10449
215 1.25416
220 1.19938
225 1.12908
230 1.56183
235 1.92426
240 1.35708
245 1.23748
250 1.15356
255 1.18823
260 1.16636
265 1.33214
270 1.38456
275 1.41709
280 1.38484
285 1.40721
290 1.49337
295 1.3881
300 1.63797
305 1.4462
310 1.67856
315 1.68332
320 1.67589
325 1.85934
330 1.87944
335 1.80353
340 1.89574
345 2.05934
350 2.08997
355 2.2625
360 2.33643
365 2.3662
370 2.67502
375 2.89357
380 3.27153
385 3.21728
390 3.34725
395 3.81146
400 4.02192
405 4.23184
410 4.44743
415 5.16314
420 5.38944
425 5.86589
430 6.70815
435 7.67505
440 9.20492
445 13.0031
450 17.0813
455 25.1687
460 42.6367
465 1891.03
470 9999.9
475 9999.9
480 5905.1
485 715.749
490 107.882
495 29.9735
500 17.2211
505 12.5893
510 9.52542
515 7.95586
520 7.06612
525 6.64791
530 6.47949
535 5.84837
540 5.43403
545 5.38949
550 5.64651
555 4.71414
560 4.42875
565 4.11721
570 3.67356
575 3.04647
580 2.51053
585 2.38724
590 2.34932
595 2.36688
600 2.75126
Ex : 483
200 1.09319
205 1.2024
210 1.26139
215 1.2421
220 1.22489
225 1.23994
230 1.22102
235 1.95925
240 1.84888
245 1.49878
250 1.34592
255 1.24215
260 1.13987
265 1.12337
270 1.3346
275 1.21627
280 1.473
285 1.36662
290 1.3937
295 1.37566
300 1.49536
305 1.50838
310 1.48713
315 1.65587
320 1.74389
325 1.94476
330 1.90553
335 1.95748
340 2.01706
345 1.99676
350 2.19097
355 2.18134
360 2.37149
365 2.44349
370 2.6443
375 2.94758
380 3.11234
385 3.20366
390 3.43134
395 3.70697
400 3.80893
405 4.14751
410 4.43026
415 4.57418
420 5.05385
425 5.58165
430 6.30365
435 6.93317
440 8.28298
445 9.9561
450 12.9748
455 17.8189
460 26.4304
465 44.9598
470 1519.02
475 9999.9
480 9999.9
485 6250.98
490 757.008
495 111.868
500 30.6614
505 17.5394
510 12.5692
515 9.14194
520 7.73999
525 7.13923
530 6.78255
535 6.56359
540 6.02666
545 5.45091
550 5.11349
555 5.27241
560 5.16079
565 4.46958
570 4.00379
575 3.68279
580 3.14234
585 2.6078
590 2.3847
595 2.30881
600 2.40136
Ex : 488
200 1.22406
205 1.25173
210 1.12159
215 1.17039
220 1.10485
225 1.26969
230 1.34209
235 1.60026
240 2.35111
245 1.41776
250 1.37297
255 1.25604
260 1.28831
265 1.30372
270 1.31315
275 1.36436
280 1.34716
285 1.39202
290 1.44196
295 1.51918
300 1.37154
305 1.50556
310 1.62406
315 1.82407
320 1.69085
325 1.68257
330 1.86967
335 2.20626
340 2.13437
345 2.24105
350 2.12672
355 2.28271
360 2.43125
365 2.48557
370 2.72423
375 2.59702
380 2.84837
385 3.23293
390 3.3337
395 3.45728
400 3.55979
405 3.99503
410 4.15769
415 4.50731
420 4.81438
425 5.18042
430 5.63348
435 6.43974
440 7.21363
445 8.81111
450 10.8212
455 13.8798
460 19.888
465 29.8907
470 45.821
475 1819.79
480 9999.9
485 9999.9
490 5987.98
495 727.16
500 109.344
505 30.3695
510 18.1453
515 12.9585
520 9.53772
525 8.21878
530 7.19863
535 6.70647
540 6.344
545 5.89906
550 5.26812
555 4.99652
560 4.93361
565 4.79154
570 4.4017
575 3.94841
580 3.59891
585 2.96741
590 2.66719
595 2.43832
600 1.80847
Ex : 493
200 1.14319
205 1.24032
210 1.1877
215 1.22025
220 1.19155
225 1.2029
230 1.21166
235 1.40205
240 2.55351
245 2.01098
250 1.48079
255 1.33114
260 1.26069
265 1.2987
270 1.41222
275 1.5711
280 1.41063
285 1.44393
290 1.46918
295 1.46011
300 1.42872
305 1.60261
310 1.68041
315 1.73288
320 1.84134
325 1.77431
330 1.87583
335 2.01914
340 2.03889
345 2.13786
350 2.21609
355 2.06396
360 2.17928
365 2.39395
370 2.47095
375 2.54104
380 2.80902
385 3.00392
390 3.24787
395 3.69913
400 3.73731
405 3.90189
410 4.26495
415 4.2397
420 4.63623
425 4.91829
430 5.41493
435 5.70662
440 6.21952
445 7.49943
450 8.87001
455 11.1048
460 14.4553
465 20.3122
470 28.1955
475 43.6331
480 1767.29
485 9999.9
490 9999.9
495 6108.44
500 740.075
505 110.665
510 30.4318
515 17.4947
520 12.8258
525 9.51331
530 8.07874
535 7.26393
540 7.04482
545 6.55289
550 5.63022
555 5.20475
560 4.9205
565 4.70862
570 4.59016
575 4.07109
580 3.91633
585 3.39873
590 2.96425
595 2.72244
600 2.01404
Ex : 498
200 1.24527
205 1.18365
210 1.29447
215 1.31623
220 1.33061
225 1.18822
230 1.24163
235 1.26125
240 2.01782
245 3.04044
250 1.6214
255 1.46169
260 1.43019
265 1.21677
270 1.48041
275 1.40999
280 1.35083
285 1.56148
290 1.52687
295 1.49835
300 1.53259
305 1.62287
310 1.65681
315 1.7727
320 1.90489
325 1.7242
330 1.82767
335 1.8265
340 2.03895
345 2.21148
350 2.14252
355 2.21317
360 2.394
365 2.30224
370 2.59994
375 2.82154
380 2.84907
385 2.79401
390 3.07549
395 3.31563
400 3.70585
405 3.92254
410 4.09125
415 4.2599
420 4.93499
425 4.74849
430 5.18716
435 5.37053
440 6.28434
445 7.1789
450 7.97629
455 9.35679
460 12.1452
465 16.4221
470 20.7988
475 28.7524
480 46.6822
485 2079
490 9999.9
495 9999.9
500 6008.06
505 729.506
510 109.989
515 30.7093
520 18.0848
525 13.0147
530 9.79335
535 8.1217
540 7.31816
545 6.76077
550 6.3138
555 6.14897
560 5.39833
565 5.08219
570 4.59507
575 4.26595
580 3.93576
585 3.35284
590 3.13245
595 3.08018
600 2.24423
Ex : 503
200 1.14848
205 1.40712
210 1.2322
215 1.19063
220 1.26424
225 1.24849
230 1.24584
235 1.20615
240 1.33221
245 2.96308
250 2.13438
255 1.43297
260 1.323
265 1.35538
270 1.46746
275 1.38921
280 1.44501
285 1.50169
290 1.45343
295 1.39564
300 1.55493
305 1.73975
310 1.64751
315 1.71853
320 1.65377
325 1.77486
330 1.79174
335 1.86276
340 2.0246
345 2.08314
350 2.14661
355 2.43068
360 2.38158
365 2.55115
370 2.35038
375 2.6914
380 2.84947
385 3.04954
390 3.02292
395 3.38731
400 3.42185
405 3.82152
410 3.99796
415 4.24853
420 4.04923
425 4.57633
430 5.07563
435 5.29689
440 5.56521
445 6.46787
450 7.36214
455 8.58202
460 10.1569
465 12.9101
470 16.4325
475 20.714
480 29.7922
485 47.208
490 1951.2
495 9999.9
500 9999.9
505 6227.75
510 756.049
515 113.927
520 31.9166
525 18.4124
530 12.9378
535 9.74095
540 8.09299
545 7.40549
550 7.48706
555 6.56394
560 6.02466
565 5.49465
570 4.90246
575 4.45174
580 3.95394
585 3.74877
590 3.34638
595 3.01848
600 4.12247
Ex : 508
200 1.333
205 1.21942
210 1.24826
215 1.09803
220 1.17429
225 1.20886
230 1.25461
235 1.21467
240 1.40544
245 2.1096
250 4.06039
255 1.85777
260 1.46117
265 1.4632
270 1.38741
275 1.45776
280 1.45519
285 1.3442
290 1.60222
295 1.54878
300 1.53628
305 1.61896
310 1.58596
315 1.5148
320 1.64798
325 1.619
330 1.77622
335 1.8939
340 2.0349
345 2.05976
350 2.31271
355 2.22377
360 2.31755
365 2.34081
370 2.54104
375 2.49266
380 2.65481
385 2.68373
390 3.07568
395 3.23997
400 3.40451
405 3.32757
410 3.81545
415 4.16627
420 4.28031
425 4.32583
430 4.51964
435 5.07426
440 5.40744
445 5.88552
450 6.90042
455 7.49227
460 9.27865
465 11.0295
470 12.8636
475 15.9396
480 21.4703
485 30.0619
490 47.9029
495 2080.02
500 9999.9
505 9999.9
510 6759.63
515 816.943
520 120.688
525 32.934
530 18.627
535 13.16
540 9.85737
545 7.99263
550 7.25581
555 6.74022
560 6.2436
565 6.012
570 5.26617
575 4.84047
580 4.1983
585 3.69758
590 3.51137
595 3.16771
600 3.64243
Ex : 513
200 1.33414
205 1.34435
210 1.2489
215 1.32335
220 1.21829
225 1.32068
230 1.20338
235 1.20037
240 1.21303
245 1.32817
250 5.52453
255 4.2878
260 1.78047
265 1.28414
270 1.38624
275 1.42145
280 1.48352
285 1.46748
290 1.45821
295 1.42528
300 1.47741
305 1.59413
310 1.61904
315 1.87151
320 1.66929
325 1.67941
330 1.73432
335 1.87568
340 1.89078
345 1.95747
350 2.27928
355 2.42981
360 2.31955
365 2.39821
370 2.57528
375 2.43365
380 2.35273
385 2.87985
390 2.96307
395 3.09259
400 3.19832
405 3.31918
410 3.60824
415 3.82708
420 4.02894
425 4.28468
430 4.52176
435 4.77355
440 5.21674
445 5.86648
450 6.41215
455 6.79968
460 7.79532
465 9.55237
470 10.7204
475 12.2019
480 15.6209
485 21.4126
490 30.9445
495 45.8902
500 1925.97
505 9999.9
510 9999.9
515 6940.59
520 839.032
525 123.375
530 32.9796
535 18.5343
540 13.6177
545 9.81383
550 7.88746
555 7.46263
560 7.06679
565 6.37994
570 6.01905
575 5.14343
580 4.58367
585 4.0505
590 3.70186
595 3.69022
600 4.05803
Ex : 518
200 1.25954
205 1.29991
210 1.24516
215 1.12739
220 1.14879
225 1.27055
230 1.13916
235 1.20387
240 1.30668
245 1.28806
250 4.18419
255 10.719
260 3.18607
265 1.57133
270 1.4066
275 1.53824
280 1.38261
285 1.42123
290 1.41511
295 1.6583
300 1.67748
305 1.64963
310 1.67933
315 1.55689
320 1.70916
325 1.76492
330 1.76347
335 1.79732
340 1.93438
345 1.9259
350 2.01841
355 2.1399
360 2.08958
365 2.35867
370 2.42012
375 2.56704
380 2.45055
385 2.60743
390 2.82994
395 3.1288
400 3.20349
405 3.31008
410 3.7677
415 3.76953
420 3.96628
425 4.05689
430 4.30259
435 4.48952
440 4.84495
445 5.23019
450 5.75924
455 6.37835
460 7.31472
465 8.23477
470 9.22561
475 10.4997
480 12.3128
485 15.8999
490 21.6208
495 29.5532
500 45.3721
505 1909.61
510 9999.9
515 9999.9
520 7092.31
525 855.591
530 124.743
535 32.9644
540 18.2643
545 13.4026
550 9.48254
555 7.98523
560 7.17747
565 6.88584
570 6.30327
575 5.73564
580 5.11139
585 4.48955
590 3.99061
595 3.56429
600 4.12527
Ex : 523
200 1.15512
205 1.18979
210 1.16586
215 1.18024
220 1.26458
225 1.17456
230 1.15154
235 1.32914
240 1.30823
245 1.20037
250 1.6573
255 12.7554
260 9.74923
265 2.52109
270 1.52508
275 1.48196
280 1.50701
285 1.57016
290 1.53158
295 1.4224
300 1.55441
305 1.60372
310 1.59595
315 1.78395
320 1.69201
325 1.67723
330 1.68217
335 1.75297
340 1.863
345 1.92023
350 1.96436
355 1.96012
360 2.1832
365 2.36465
370 2.43405
375 2.34055
380 2.32374
385 2.5152
390 2.67412
395 2.8947
400 3.11695
405 3.0093
410 3.44877
415 3.59443
420 3.87711
425 3.92008
430 4.28661
435 4.42547
440 4.76367
445 5.13325
450 5.43557
455 5.9951
460 6.69011
465 7.33772
470 8.27839
475 9.08445
480 10.2334
485 12.5123
490 16.558
495 21.357
500 29.2836
505 45.8672
510 1767.93
515 9999.9
520 9999.9
525 7343.16
530 884.583
535 128.679
540 33.3406
545 18.4049
550 13.0071
555 9.51591
560 7.96203
565 7.47791
570 6.80708
575 6.39808
580 5.8329
585 4.93964
590 4.45736
595 4.1419
600 2.68474
Ex : 528
200 1.24135
205 1.1684
210 1.25178
215 1.27164
220 1.23061
225 1.20566
230 1.20435
235 1.15388
240 1.21577
245 1.26335
250 1.47224
255 7.18644
260 21.3655
265 5.61632
270 2.04174
275 1.45596
280 1.54889
285 1.57842
290 1.63366
295 1.63265
300 1.88764
305 1.90834
310 1.73191
315 1.88592
320 1.82338
325 1.64783
330 1.98009
335 2.0883
340 1.90571
345 1.87497
350 1.87964
355 2.09349
360 2.14412
365 2.02909
370 2.28148
375 2.47326
380 2.63183
385 2.54216
390 2.62392
395 2.64927
400 3.02493
405 3.16709
410 3.1716
415 3.53845
420 3.58929
425 3.95659
430 4.30902
435 4.39244
440 4.80305
445 5.04139
450 5.43289
455 5.7985
460 6.46113
465 6.91365
470 7.92348
475 8.14893
480 9.17793
485 10.7642
490 12.5984
495 15.9335
500 20.8202
505 29.49
510 45.3582
515 1684.44
520 9999.9
525 9999.9
530 7163.53
535 866.299
540 126.193
545 32.8358
550 18.5644
555 13.0381
560 9.58827
565 8.22642
570 7.20536
575 6.6577
580 6.10052
585 5.44397
590 4.89218
595 4.13433
600 4.15794
Ex : 533
200 1.22147
205 1.29758
210 1.24559
215 1.07028
220 1.32027
225 1.2361
230 1.2539
235 1.31571
240 1.28623
245 1.31177
250 1.27741
255 2.27423
260 25.2223
265 19.6835
270 3.6671
275 1.7444
280 1.52555
285 1.68477
290 1.73598
295 1.74987
300 1.75527
305 1.54909
310 1.67327
315 1.83797
320 1.9358
325 2.01982
330 1.84536
335 1.80734
340 2.00861
345 1.97136
350 1.96105
355 2.10033
360 2.10497
365 2.36869
370 2.21458
375 2.38125
380 2.46152
385 2.66699
390 2.7084
395 2.76332
400 2.5034
405 3.02802
410 3.16135
415 3.13761
420 3.57366
425 3.57956
430 4.03109
435 4.08656
440 4.27653
445 4.76015
450 5.06366
455 5.47083
460 6.05936
465 6.62665
470 7.04035
475 7.36306
480 8.14692
485 8.91434
490 10.3437
495 12.2161
500 15.619
505 20.7228
510 28.8721
515 45.1042
520 1676.8
525 9999.9
530 9999.9
535 7361.21
540 886.009
545 127.743
550 33.2564
555 17.9498
560 13.39
565 9.28732
570 7.63759
575 7.15449
580 6.53022
585 5.989
590 5.43513
595 4.83305
600 6.00526
Ex : 538
200 1.13645
205 1.19935
210 1.32649
215 1.19201
220 1.21939
225 1.29953
230 1.30273
235 1.44985
240 1.24563
245 1.33547
250 1.22212
255 1.39595
260 13.2313
265 43.7844
270 11.7593
275 2.648
280 1.67849
285 1.60642
290 1.65408
295 1.68357
300 1.82393
305 1.90595
310 1.7903
315 1.75583
320 2.0959
325 1.9351
330 1.85414
335 1.92594
340 1.68171
345 1.94929
350 1.98549
355 1.98538
360 2.21006
365 2.12373
370 2.26499
375 2.50587
380 2.48883
385 2.71329
390 2.72002
395 2.79305
400 2.80558
405 2.70709
410 3.0638
415 3.1165
420 3.44787
425 3.53445
430 4.00183
435 3.60097
440 4.32922
445 4.68137
450 4.88018
455 5.31903
460 5.94744
465 6.10694
470 6.46072
475 7.00169
480 7.54419
485 8.07551
490 9.1415
495 10.1904
500 12.2997
505 15.7731
510 20.5329
515 28.4883
520 43.3666
525 1435.91
530 9999.9
535 9999.9
540 7985.43
545 963.179
550 137.5
555 34.5114
560 17.7783
565 12.934
570 9.58393
575 7.3765
580 6.8662
585 6.39766
590 6.06269
595 5.22536
600 4.91487
Ex : 543
200 1.33312
205 1.11759
210 1.14439
215 1.26187
220 1.24576
225 1.15042
230 1.25219
235 1.27788
240 1.44679
245 1.17304
250 1.2708
255 1.35725
260 3.08588
265 49.0672
270 40.8557
275 6.31437
280 2.39574
285 1.79334
290 1.81212
295 1.97885
300 1.72602
305 1.78092
310 1.85149
315 1.7794
320 1.84553
325 1.90552
330 1.94292
335 1.85063
340 2.15267
345 2.02575
350 2.0848
355 2.12515
360 1.97752
365 2.05108
370 2.26862
375 2.24519
380 2.25035
385 2.37083
390 2.74445
395 2.78413
400 2.95587
405 2.74176
410 2.96877
415 2.94488
420 3.47683
425 3.3187
430 3.68449
435 3.89584
440 3.95849
445 4.44159
450 4.64715
455 5.22391
460 5.38959
465 6.00288
470 6.43943
475 6.51489
480 6.72593
485 7.42074
490 8.28652
495 9.10167
500 10.2795
505 11.9076
510 15.7789
515 19.9321
520 27.6142
525 42.8336
530 1386.02
535 9999.9
540 9999.9
545 8397.99
550 1015.66
555 143.024
560 34.5116
565 18.4866
570 12.6618
575 9.27507
580 7.26916
585 6.62758
590 6.12035
595 5.60103
600 3.84391
Ex : 548
200 1.44279
205 1.20597
210 1.29752
215 1.18449
220 1.15427
225 1.28861
230 1.18084
235 1.25235
240 1.36219
245 1.31339
250 1.4212
255 1.38617
260 1.34274
265 22.643
270 82.1124
275 20.3672
280 3.93063
285 2.03035
290 1.86812
295 2.02687
300 1.87949
305 1.87391
310 1.87439
315 1.82505
320 1.85458
325 1.8044
330 1.7508
335 2.13394
340 1.8528
345 2.01457
350 1.97415
355 1.82249
360 1.99823
365 2.15857
370 2.22065
375 2.42802
380 2.26609
385 2.64003
390 2.53018
395 2.85414
400 2.81751
405 2.78112
410 3.09286
415 2.9755
420 3.14625
425 3.27582
430 3.44152
435 3.68847
440 3.98636
445 4.00211
450 4.31356
455 4.74714
460 5.44111
465 5.97831
470 5.88
475 6.11046
480 6.35865
485 6.83479
490 7.40483
495 7.88781
500 8.61223
505 9.84433
510 12.1923
515 15.2977
520 20.5921
525 27.8812
530 44.0005
535 1535.56
540 9999.9
545 9999.9
550 8283.97
555 997.355
560 140.644
565 34.2176
570 17.3204
575 12.0746
580 8.82666
585 6.93303
590 6.47561
595 6.34823
600 5.87625
Ex : 553
200 1.244
205 1.34348
210 1.23583
215 1.31459
220 1.34121
225 1.31758
230 1.06008
235 1.18065
240 1.04111
245 1.42649
250 1.47369
255 1.42298
260 1.4536
265 4.0802
270 80.3665
275 68.2262
280 10.0442
285 2.69741
290 2.09028
295 2.01775
300 1.96471
305 1.79749
310 1.71553
315 2.00714
320 1.99848
325 1.88716
330 1.84367
335 2.07863
340 1.88348
345 2.25007
350 2.1081
355 2.11391
360 2.0319
365 1.96546
370 2.1913
375 2.06764
380 2.26345
385 2.28793
390 2.35175
395 2.60952
400 2.71414
405 2.83515
410 2.83084
415 3.11342
420 2.78858
425 3.31881
430 3.64728
435 3.64505
440 3.65516
445 3.86408
450 4.37056
455 4.55058
460 4.91692
465 5.47161
470 5.77068
475 5.72771
480 5.88569
485 6.58343
490 6.94079
495 7.06441
500 8.00214
505 8.65547
510 10.0328
515 12.0483
520 15.3278
525 20.0344
530 27.6047
535 42.2261
540 1317.21
545 9999.9
550 9999.9
555 8577.36
560 1035.42
565 144.172
570 33.3003
575 16.6177
580 11.7792
585 8.24042
590 6.59997
595 6.23631
600 7.45297
Ex : 558
200 1.38983
205 1.30119
210 1.20648
215 1.35104
220 1.3886
225 1.14534
230 1.26616
235 1.17752
240 1.39548
245 1.42935
250 1.28643
255 1.26037
260 1.52182
265 1.61858
270 32.8478
275 129.579
280 32.3807
285 5.64529
290 2.27241
295 2.01509
300 1.8804
305 2.11608
310 2.05414
315 2.02933
320 2.00523
325 2.00717
330 1.84079
335 1.91438
340 2.1557
345 2.09294
350 1.9343
355 2.01961
360 2.05795
365 2.16877
370 2.21875
375 2.21938
380 2.3402
385 2.30571
390 2.41565
395 2.66057
400 2.75801
405 2.88965
410 2.86749
415 2.83007
420 2.93388
425 2.99638
430 3.27472
435 3.5444
440 3.48593
445 3.85676
450 4.20648
455 4.63117
460 4.8503
465 5.38768
470 5.29292
475 5.54698
480 5.80155
485 5.7612
490 6.69425
495 6.858
500 6.99365
505 7.78752
510 8.65781
515 10.1401
520 11.7951
525 15.0964
530 19.9503
535 27.5299
540 41.5179
545 1251.97
550 9999.9
555 9999.9
560 8730.75
565 1055.36
570 146.195
575 33.08
580 16.0146
585 11.1073
590 7.5185
595 6.18049
600 4.89944
Ex : 563
200 1.32389
205 1.34666
210 1.28314
215 1.39801
220 1.16692
225 1.2171
230 1.18717
235 1.34841
240 1.29581
245 1.22351
250 1.32807
255 1.12786
260 1.49084
265 1.40805
270 5.16953
275 116.429
280 97.7981
285 13.7386
290 3.36565
295 1.93144
300 1.92235
305 1.88367
310 2.03877
315 1.89455
320 2.08035
325 1.75865
330 1.94105
335 1.91358
340 2.08798
345 2.09865
350 1.92727
355 1.94364
360 1.94915
365 2.07408
370 2.194
375 2.2245
380 2.33559
385 2.18151
390 2.29735
395 2.6517
400 2.66207
405 2.56662
410 2.88536
415 2.99452
420 2.91816
425 2.98964
430 2.95682
435 3.32142
440 3.58193
445 3.7744
450 4.10648
455 4.25604
460 4.6584
465 4.85545
470 5.07473
475 5.30156
480 5.2661
485 5.5655
490 6.17896
495 6.32706
500 6.41668
505 7.15689
510 7.74793
515 8.14695
520 10.1818
525 11.7218
530 14.8032
535 19.5102
540 26.8083
545 41.1884
550 1236.38
555 9999.9
560 9999.9
565 8601.36
570 1036.12
575 141.392
580 31.4072
585 14.9202
590 10.5517
595 7.43422
600 5.46073
Ex : 568
200 1.14577
205 1.35833
210 1.11885
215 1.29442
220 1.34564
225 1.26968
230 1.34609
235 1.30338
240 1.27575
245 1.36227
250 1.39369
255 1.3893
260 1.31552
265 1.42183
270 1.66212
275 42.4251
280 171.852
285 46.3731
290 6.93725
295 2.31097
300 1.78738
305 1.79122
310 1.8041
315 1.98555
320 1.79624
325 1.92761
330 1.98579
335 1.79469
340 1.97326
345 1.8734
350 1.93179
355 2.10059
360 2.06436
365 2.02666
370 2.09194
375 2.25977
380 2.23965
385 2.29757
390 2.3554
395 2.4958
400 2.42237
405 2.70494
410 2.70644
415 2.7298
420 2.89146
425 2.83745
430 3.03279
435 3.11481
440 3.53118
445 4.08881
450 4.03018
455 3.89611
460 4.34137
465 4.65847
470 4.9406
475 4.7924
480 5.14519
485 5.21971
490 5.63415
495 5.81716
500 6.12487
505 6.32175
510 6.70622
515 7.56425
520 8.41219
525 9.52243
530 11.2321
535 14.7158
540 19.2088
545 26.9174
550 39.4762
555 942.62
560 9999.9
565 9999.9
570 8961.75
575 1084.72
580 144.838
585 30.0411
590 13.8431
595 9.64838
600 9.1624
Ex : 573
200 1.25078
205 1.36966
210 1.15836
215 1.31324
220 1.2861
225 1.32424
230 1.42058
235 1.32062
240 1.24604
245 1.10705
250 1.26721
255 1.31819
260 1.38153
265 1.41422
270 1.50496
275 5.41093
280 140.344
285 132.416
290 18.7918
295 3.77935
300 2.07554
305 1.81632
310 1.76162
315 1.8057
320 1.75922
325 1.92247
330 1.73422
335 1.84447
340 2.09836
345 2.12654
350 2.1154
355 1.88307
360 2.09482
365 1.97451
370 2.13391
375 2.10601
380 1.74351
385 2.03641
390 2.22121
395 2.38074
400 2.3059
405 2.53514
410 2.57183
415 2.81837
420 2.89697
425 2.59287
430 2.9946
435 3.20336
440 3.08554
445 3.64738
450 3.45042
455 3.6869
460 4.09987
465 4.65029
470 4.6275
475 4.80092
480 4.74997
485 5.27775
490 5.52352
495 5.57361
500 5.64852
505 5.88047
510 6.31448
515 6.97502
520 7.67892
525 8.11938
530 9.10032
535 10.8983
540 13.7567
545 18.2837
550 24.5915
555 37.6639
560 812.633
565 9999.9
570 9999.9
575 8700.18
580 1050.23
585 139.1
590 28.6284
595 13.1456
600 10.1131
Ex : 578
200 1.12808
205 1.20867
210 1.24468
215 1.23436
220 1.28588
225 1.26563
230 1.21117
235 1.22037
240 1.45904
245 1.34039
250 1.07229
255 1.17488
260 1.36834
265 1.34945
270 1.41722
275 1.65465
280 50.5316
285 211.068
290 57.3328
295 8.22234
300 2.31501
305 1.55942
310 1.72489
315 1.67905
320 1.73576
325 1.64558
330 1.58233
335 1.76667
340 1.6885
345 1.9018
350 2.02192
355 1.85276
360 1.87031
365 2.01069
370 1.83535
375 2.03817
380 1.90841
385 1.96717
390 2.04133
395 2.11759
400 2.32011
405 2.30266
410 2.48811
415 2.65187
420 2.54222
425 2.61189
430 2.67054
435 2.78738
440 2.83598
445 2.88316
450 3.46216
455 3.72756
460 3.81416
465 3.97654
470 4.402
475 4.06926
480 4.3899
485 4.66617
490 4.66238
495 4.84974
500 4.81383
505 5.18706
510 5.60491
515 6.01895
520 6.31964
525 6.61117
530 7.72133
535 9.11117
540 10.5182
545 13.4278
550 18.0897
555 23.331
560 35.692
565 721.133
570 9999.9
575 9999.9
580 7646.08
585 920.113
590 122.503
595 25.3226
600 12.9153
Ex : 583
200 1.09862
205 1.15512
210 1.18197
215 1.07807
220 1.14378
225 1.27585
230 1.15578
235 1.15468
240 1.12412
245 1.01442
250 1.16755
255 1.06235
260 1.20661
265 1.20233
270 1.31667
275 1.42802
280 5.95943
285 167.963
290 159.078
295 22.1593
300 4.21184
305 1.75996
310 1.60041
315 1.65278
320 1.90999
325 1.62183
330 1.75317
335 1.6343
340 1.71277
345 1.96086
350 1.83935
355 1.59523
360 1.70722
365 1.75079
370 1.85935
375 1.83035
380 1.92076
385 1.95911
390 2.04338
395 1.96812
400 1.8183
405 1.95444
410 2.19803
415 2.50607
420 2.32566
425 2.32779
430 2.29144
435 2.43002
440 2.78474
445 2.81733
450 3.18763
455 3.30798
460 3.51949
465 3.89019
470 3.88397
475 4.03242
480 4.1118
485 4.14071
490 4.3701
495 4.73203
500 4.53057
505 4.74407
510 4.84591
515 5.34121
520 5.58046
525 6.5161
530 6.72447
535 7.58051
540 8.39113
545 10.5167
550 13.0758
555 16.9581
560 23.1771
565 33.7123
570 637.361
575 9999.9
580 9999.9
585 6436.81
590 776.492
595 103.721
600 27.2841
Ex : 588
200 0.989356
205 0.979614
210 1.0796
215 1.02478
220 1.06101
225 1.03117
230 0.891958
235 1.09426
240 1.10205
245 0.971014
250 1.12087
255 0.944546
260 1.03548
265 1.33749
270 1.08646
275 1.41342
280 1.57001
285 55.8904
290 248.964
295 71.6148
300 9.73957
305 2.5688
310 1.63458
315 1.55356
320 1.70094
325 1.61748
330 1.61402
335 1.4896
340 1.71146
345 1.43135
350 1.58691
355 1.80984
360 1.66376
365 1.65967
370 1.83547
375 1.84881
380 1.86396
385 2.06344
390 1.98821
395 2.06994
400 1.93089
405 2.09507
410 2.40781
415 2.13712
420 2.21664
425 2.21455
430 2.35521
435 2.1512
440 2.54241
445 2.94839
450 2.77491
455 2.9855
460 3.08723
465 3.77552
470 3.79251
475 3.72696
480 3.74441
485 3.60142
490 4.01469
495 4.18641
500 4.25244
505 4.1704
510 4.41409
515 4.58098
520 5.10131
525 5.68667
530 6.12754
535 6.25139
540 6.87265
545 8.09307
550 9.78719
555 12.4891
560 15.1624
565 20.6269
570 30.1293
575 568.164
580 9999.9
585 9999.9
590 6002.42
595 722.692
600 99.2412
Ex : 593
200 0.876039
205 0.925423
210 0.834502
215 0.819537
220 1.14457
225 0.937184
230 0.85927
235 0.838528
240 1.01258
245 0.852835
250 1.03955
255 0.957297
260 0.98817
265 0.986119
270 1.07465
275 1.11094
280 1.35206
285 6.37311
290 193.114
295 193.372
300 27.0324
305 4.52772
310 1.80966
315 1.54485
320 1.70446
325 1.89122
330 1.70016
335 1.72752
340 1.57005
345 1.80958
350 1.59932
355 1.67138
360 1.57672
365 1.57041
370 1.66747
375 1.55627
380 1.80013
385 1.86711
390 1.7087
395 1.83788
400 1.86944
405 2.17854
410 1.91475
415 1.78574
420 1.9842
425 2.24259
430 2.19529
435 2.31566
440 2.0787
445 2.49032
450 2.49744
455 2.76991
460 2.93419
465 3.18986
470 3.38119
475 3.42953
480 3.6992
485 3.33103
490 3.9304
495 3.79147
500 3.92994
505 4.51987
510 4.40072
515 4.34736
520 4.3881
525 5.11557
530 5.41522
535 5.41653
540 6.15641
545 6.82456
550 8.08186
555 9.3899
560 12.0134
565 15.5861
570 19.3789
575 27.3707
580 494.989
585 9999.9
590 9999.9
595 5476.25
600 813.362
Ex : 598
200 0.901938
205 0.915701
210 1.07714
215 0.94963
220 0.995971
225 0.881743
230 0.898741
235 1.01989
240 0.923505
245 0.997415
250 0.881127
255 0.946916
260 1.00376
265 1.00571
270 1.01212
275 0.872272
280 1.1166
285 1.59788
290 65.2131
295 295.028
300 89.6911
305 11.768
310 2.71463
315 1.61517
320 1.72495
325 1.79676
330 1.55525
335 1.47016
340 1.54373
345 1.77673
350 1.58169
355 1.57294
360 1.56852
365 1.59068
370 1.68459
375 1.73997
380 1.71408
385 1.62545
390 1.81563
395 1.74282
400 1.78745
405 1.93317
410 1.69887
415 1.94318
420 1.95381
425 1.90399
430 2.13561
435 2.26381
440 2.17225
445 2.38643
450 2.34356
455 2.88266
460 2.98172
465 3.25107
470 3.43674
475 3.45684
480 3.53608
485 3.39788
490 3.63738
495 3.69101
500 3.6704
505 4.10693
510 3.57681
515 4.18262
520 4.18704
525 4.55669
530 4.42294
535 5.25852
540 5.39443
545 5.74681
550 6.07315
555 7.68924
560 8.43034
565 11.0609
570 13.44
575 17.8459
580 24.8172
585 498.153
590 9999.9
595 9999.9
600 9999.9
Ex : 603
200 0.849612
205 1.00662
210 0.865938
215 0.951111
220 0.916871
225 0.991074
230 0.895716
235 1.07789
240 0.809201
245 0.801367
250 0.906336
255 0.91527
260 1.12156
265 0.951662
270 0.965256
275 1.27001
280 1.04455
285 1.34263
290 6.33712
295 220.658
300 241.09
305 33.9584
310 5.26424
315 2.06337
320 1.60542
325 1.39748
330 1.52283
335 1.65291
340 1.45461
345 1.61348
350 1.49231
355 1.46681
360 1.58371
365 1.57529
370 1.62421
375 1.57749
380 1.68565
385 1.66088
390 1.67417
395 1.79148
400 1.77264
405 1.89195
410 1.91267
415 1.83659
420 2.05491
425 1.97059
430 1.8759
435 2.13367
440 2.09958
445 2.14888
450 2.42552
455 2.45818
460 2.68631
465 2.76125
470 2.71607
475 2.87043
480 3.52174
485 3.6362
490 3.55738
495 3.42714
500 3.8672
505 3.75113
510 3.99007
515 3.59669
520 4.08264
525 4.42989
530 4.38878
535 4.7897
540 5.16081
545 5.33148
550 5.7325
555 6.35095
560 7.50862
565 8.71638
570 10.5516
575 12.7625
580 15.5393
585 22.1803
590 429.997
595 9999.9
600 9999.9
