File format V 1.0
jeu. 12. mai 17:34:49 2016
Operator : 
Comments : 

=============================================
SpectroFluorometer parameters
Mode : 3D measurement
Data : Fluorescence
Phospho. : Ordinary
Spectrum : Fluorescence

Scan speed : 2400 nm/mn
Response : 100 ms
PM Voltage : 700 V
Shutter : On

Lambda Ex. Start : 203
Lambda Ex. End : 603
Lambda Ex. Step : 5
Ex. Slit : 5 nm

Lambda Em. Start : 200
Lambda Em. End : 600
Lambda Em. Step : 5
Em. Slit : 5 nm

Repetition : 1
Decal lambda em : 10
=============================================
DATA
Ex : 203
200 18
205 13.6424
210 14.9251
215 11.2748
220 11.5161
225 11.8436
230 7.04766
235 13.398
240 10.7885
245 12.2544
250 11.204
255 10.9918
260 11.5055
265 11.7194
270 13.4169
275 17.2906
280 14.2096
285 14.149
290 17.859
295 21.1743
300 24.2776
305 24.3474
310 27.5005
315 24.6199
320 23.9937
325 26.2951
330 31.6358
335 33.899
340 34.2127
345 38.1479
350 38.3089
355 43.0419
360 43.7285
365 44.5217
370 40.7231
375 46.9584
380 47.8868
385 50.3626
390 50.7376
395 53.3898
400 56.9618
405 61.3562
410 53.2469
415 52.7072
420 54.593
425 60.3682
430 55.0201
435 58.1285
440 58.9252
445 61.7596
450 56.9935
455 62.8767
460 74.5748
465 76.6223
470 70.9142
475 68.3041
480 60.8849
485 52.1107
490 59.0722
495 55.7454
500 55.3467
505 51.9528
510 58.142
515 46.934
520 49.0046
525 48.4994
530 55.4897
535 52.6088
540 53.8569
545 57.9859
550 50.5268
555 55.9078
560 53.8543
565 50.9767
570 55.9013
575 47.2541
580 37.6467
585 38.3396
590 40.9688
595 35.1994
600 4.00556
Ex : 208
200 11.7127
205 7.52056
210 11.2063
215 9.16863
220 12.5485
225 9.02887
230 14.202
235 12.5533
240 14.7776
245 11.0041
250 7.60173
255 10.5052
260 12.592
265 13.4989
270 15.0034
275 17.9329
280 20.0585
285 22.3538
290 20.5385
295 18.4963
300 25.2332
305 21.5126
310 28.9311
315 31.4666
320 30.2043
325 31.7535
330 35.6671
335 33.6918
340 32.6693
345 37.67
350 41.1823
355 41.1575
360 41.4149
365 47.3331
370 46.1569
375 52.6491
380 47.8161
385 57.7176
390 46.7753
395 57.0398
400 55.2625
405 55.1289
410 52.787
415 59.0877
420 62.8377
425 55.6592
430 57.7441
435 61.8322
440 58.3202
445 58.898
450 58.4737
455 59.653
460 67.5093
465 77.1587
470 70.4052
475 66.1897
480 68.0689
485 66.5097
490 57.9169
495 52.1201
500 51.7536
505 55.5969
510 56.9913
515 52.8491
520 54.7192
525 48.3841
530 48.8629
535 48.8991
540 42.8685
545 49.2325
550 43.7287
555 45.2211
560 57.8157
565 46.6896
570 51.3957
575 50.0378
580 45.2281
585 32.7165
590 34.2661
595 29.7203
600 13.8393
Ex : 213
200 11.5298
205 12.5932
210 12.5155
215 13.0597
220 10.6825
225 8.81966
230 10.7865
235 8.20024
240 7.17756
245 10.6739
250 11.3223
255 14.1409
260 11.4714
265 14.4712
270 18.2541
275 17.087
280 16.2639
285 19.804
290 19.6008
295 20.3213
300 28.3043
305 28.9775
310 26.4832
315 26.5648
320 29.9762
325 30.3416
330 29.0193
335 32.3944
340 36.1354
345 35.795
350 35.6522
355 39.8627
360 37.3821
365 40.1546
370 48.2501
375 50.2339
380 51.5267
385 52.3917
390 52.863
395 63.5427
400 60.2668
405 57.155
410 58.7073
415 54.5601
420 47.7771
425 50.5219
430 53.2854
435 56.1889
440 60.2511
445 61.4699
450 62.9836
455 66.3884
460 73.3732
465 73.3547
470 70.289
475 58.6023
480 58.7843
485 62.1488
490 61.9819
495 50.4474
500 49.2675
505 48.5732
510 56.8334
515 49.2442
520 54.9275
525 46.4802
530 44.7278
535 53.9272
540 53.6997
545 50.4113
550 44.6824
555 52.0727
560 51.7439
565 49.353
570 52.0709
575 45.1554
580 45.368
585 42.0358
590 35.7568
595 36.0619
600 32.4622
Ex : 218
200 14.2457
205 11.5831
210 10.8212
215 13.9216
220 13.732
225 13.8581
230 10.8721
235 12.3313
240 12.3862
245 13.1478
250 13.4968
255 14.1132
260 16.3423
265 12.5226
270 16.4357
275 14.8402
280 18.0494
285 22.1256
290 21.0432
295 19.8932
300 21.9301
305 24.117
310 33.0458
315 29.8611
320 27.7483
325 34.4218
330 38.0623
335 38.6221
340 37.9985
345 37.0201
350 37.5568
355 44.9207
360 44.0058
365 50.7652
370 50.9209
375 53.4601
380 51.5822
385 50.1008
390 54.9951
395 50.4933
400 54.4278
405 59.0479
410 63.5608
415 66.8582
420 57.3629
425 62.1988
430 56.3712
435 59.7238
440 66.177
445 61.3725
450 64.9788
455 60.4364
460 60.7165
465 70.4222
470 68.6331
475 60.2753
480 65.545
485 56.5158
490 56.925
495 60.9378
500 50.6458
505 43.6878
510 49.5885
515 45.3125
520 48.2062
525 45.1485
530 52.3457
535 49.9062
540 56.4257
545 55.147
550 48.9694
555 53.6129
560 61.3443
565 57.7761
570 50.5572
575 49.5501
580 49.6005
585 43.0235
590 39.7237
595 37.6695
600 62.7761
Ex : 223
200 9.25397
205 10.7353
210 11.3489
215 11.9259
220 10.6297
225 11.4575
230 11.1764
235 7.85578
240 10.7407
245 13.9194
250 11.113
255 11.9134
260 11.9571
265 15.7581
270 12.1367
275 13.294
280 17.7683
285 23.2437
290 29.349
295 23.0673
300 22.5153
305 25.0717
310 30.8533
315 26.9861
320 26.5553
325 35.2272
330 36.5029
335 33.8598
340 37.9902
345 35.4114
350 40.6933
355 35.4994
360 39.8787
365 46.0078
370 47.1961
375 47.7183
380 48.0414
385 48.3496
390 47.565
395 51.1663
400 58.2538
405 52.7208
410 58.0639
415 50.5378
420 51.5535
425 53.9838
430 51.2353
435 53.5497
440 55.6445
445 60.0003
450 56.2027
455 54.7869
460 64.4567
465 68.0051
470 73.9565
475 67.0388
480 55.553
485 56.4064
490 57.8338
495 51.934
500 49.8215
505 53.1151
510 48.9003
515 54.366
520 48.5416
525 53.9291
530 49.6339
535 50.9092
540 51.7211
545 54.0233
550 48.4065
555 57.6087
560 57.1871
565 56.2562
570 53.1969
575 54.0427
580 42.2811
585 38.6091
590 38.884
595 41.6931
600 83.0258
Ex : 228
200 8.07882
205 11.0407
210 10.2098
215 9.85485
220 15.3792
225 14.1614
230 11.5516
235 9.42503
240 9.79418
245 14.5329
250 9.6251
255 14.0782
260 14.9693
265 14.4966
270 11.1818
275 17.2723
280 19.227
285 14.9105
290 21.3575
295 20.6834
300 21.4794
305 22.7964
310 24.2584
315 28.6088
320 34.2206
325 31.7951
330 35.1281
335 33.8643
340 34.9465
345 37.7481
350 38.1678
355 36.8987
360 37.229
365 36.131
370 46.2131
375 42.26
380 50.5297
385 51.7243
390 52.9702
395 49.2368
400 54.7414
405 51.2817
410 56.5583
415 51.7832
420 47.2125
425 45.7625
430 44.5255
435 42.829
440 46.6666
445 57.6775
450 85.6728
455 141.086
460 135.347
465 79.0032
470 58.1234
475 63.835
480 66.7256
485 56.5223
490 56.6281
495 49.4417
500 45.1006
505 42.4479
510 47.8999
515 49.5661
520 50.4956
525 41.3595
530 46.4391
535 51.7121
540 52.2582
545 52.3412
550 47.3166
555 53.5996
560 57.4759
565 51.6525
570 52.6371
575 51.9956
580 42.4623
585 40.7701
590 39.3831
595 32.9396
600 28.5621
Ex : 233
200 9.72857
205 6.68977
210 7.46632
215 7.38589
220 10.3632
225 25.7882
230 49.9498
235 24.0581
240 12.8829
245 10.0327
250 9.73227
255 10.8158
260 12.9623
265 10.6167
270 17.2389
275 17.1014
280 19.2442
285 18.3464
290 19.2955
295 24.1193
300 23.7941
305 28.4313
310 27.1233
315 26.1399
320 29.0323
325 28.1984
330 31.3846
335 34.326
340 34.564
345 41.23
350 39.4792
355 38.7672
360 35.0803
365 41.915
370 46.1539
375 39.3088
380 39.5238
385 48.9966
390 44.9511
395 43.9198
400 44.1713
405 48.0571
410 50.2914
415 50.0708
420 44.2694
425 43.4193
430 45.4147
435 43.9765
440 53.6873
445 51.0447
450 55.5479
455 99.2793
460 282.357
465 453.748
470 315.34
475 96.1353
480 58.9705
485 51.0397
490 47.3767
495 46.056
500 43.0395
505 42.5653
510 42.6808
515 43.4047
520 52.5066
525 46.8991
530 49.0299
535 50.0353
540 47.2474
545 49.1459
550 48.0498
555 50.8407
560 47.3671
565 50.489
570 49.7996
575 51.8255
580 46.026
585 34.0749
590 35.263
595 35.9786
600 22.1728
Ex : 238
200 7.5451
205 13.3049
210 11.2444
215 9.89389
220 8.54603
225 12.4757
230 73.4929
235 125.983
240 33.4251
245 11.8169
250 11.7172
255 7.76263
260 14.5259
265 11.114
270 11.5498
275 13.5281
280 15.6159
285 17.6883
290 18.0949
295 23.5853
300 21.1393
305 21.7572
310 25.0647
315 23.736
320 28.0934
325 29.2296
330 31.3002
335 32.1843
340 34.3653
345 35.7331
350 35.6905
355 41.4672
360 36.684
365 34.8974
370 34.1782
375 41.4658
380 39.304
385 42.2935
390 47.0274
395 44.9319
400 43.7523
405 48.0596
410 44.0494
415 38.9411
420 44.9094
425 44.0116
430 45.9295
435 48.2903
440 36.827
445 41.1032
450 44.0775
455 45.6462
460 68.2649
465 252.87
470 611.536
475 738.858
480 480.599
485 135.045
490 61.1795
495 44.1999
500 41.3677
505 44.5867
510 46.8053
515 49.9937
520 47.2629
525 43.8475
530 44.5459
535 44.8427
540 47.5517
545 47.8433
550 51.5965
555 45.2273
560 48.1685
565 54.4497
570 50.9657
575 44.2019
580 41.1609
585 40.9702
590 38.7224
595 41.2696
600 40.883
Ex : 243
200 6.64169
205 7.46692
210 7.05604
215 6.70796
220 8.6228
225 9.27316
230 14.7435
235 122.483
240 177.173
245 50.7949
250 14.0495
255 8.79044
260 11.7745
265 12.8986
270 10.9768
275 14.6797
280 14.552
285 15.746
290 15.5801
295 16.4733
300 17.9921
305 20.3171
310 22.8058
315 24.6916
320 25.6333
325 27.947
330 25.4379
335 29.1077
340 31.3441
345 32.8146
350 31.8022
355 29.7921
360 35.3738
365 31.5479
370 32.5816
375 30.7803
380 38.7197
385 36.0613
390 35.7608
395 38.2775
400 37.4945
405 39.6034
410 41.6194
415 41.7416
420 38.9829
425 36.7722
430 37.9741
435 34.8696
440 38.5581
445 42.2136
450 42.3355
455 47.0571
460 46.3894
465 49.3482
470 98.8506
475 445.141
480 1219.87
485 1319.84
490 614.105
495 148.517
500 54.1272
505 38.635
510 43.1146
515 43.1897
520 48.9921
525 48.5828
530 51.7003
535 42.1865
540 46.1742
545 51.2032
550 53.9476
555 46.6758
560 43.8005
565 43.5083
570 49.2097
575 42.7834
580 44.4341
585 42.3913
590 32.4046
595 30.3155
600 17.5183
Ex : 248
200 4.98942
205 5.38713
210 7.12503
215 6.17467
220 6.47373
225 6.95266
230 5.43777
235 18.7872
240 160.972
245 224.961
250 56.2407
255 14.1694
260 11.3726
265 15.225
270 15.9338
275 12.3968
280 16.3887
285 16.0271
290 17.9295
295 16.7901
300 17.3237
305 18.3901
310 21.8132
315 23.078
320 22.0206
325 25.069
330 26.351
335 27.1387
340 28.5623
345 28.3856
350 27.0297
355 29.9797
360 29.8355
365 28.9188
370 29.4913
375 30.901
380 30.8994
385 35.0306
390 35.3892
395 38.5261
400 34.6664
405 35.2146
410 38.9343
415 29.3152
420 34.5968
425 34.1621
430 32.6645
435 34.2737
440 36.0643
445 35.961
450 35.3052
455 30.8504
460 35.6844
465 44.7041
470 42.0197
475 42.2417
480 125.803
485 623.873
490 1872.45
495 1768.19
500 645.502
505 132.196
510 51.0203
515 44.845
520 45.399
525 47.4775
530 50.7669
535 51.2073
540 54.604
545 49.6936
550 48.5174
555 43.5857
560 46.5444
565 43.9677
570 44.6961
575 38.5838
580 34.1623
585 33.4547
590 33.291
595 31.7013
600 23.3698
Ex : 253
200 4.89565
205 3.42841
210 3.41976
215 4.18467
220 5.30066
225 5.88932
230 5.61209
235 4.12136
240 17.9895
245 169.956
250 313.407
255 116.9
260 23.4569
265 12.8863
270 12.8387
275 16.4751
280 15.8416
285 14.7666
290 16.4722
295 14.2469
300 15.7273
305 19.2685
310 17.0805
315 19.862
320 19.7099
325 23.2936
330 20.3748
335 24.1523
340 24.5667
345 24.6667
350 26.0267
355 25.8668
360 26.916
365 25.8775
370 26.5185
375 25.7069
380 28.2036
385 27.9808
390 29.0446
395 30.9826
400 30.3851
405 31.1459
410 28.0233
415 30.9413
420 28.4467
425 27.2532
430 28.1011
435 28.6199
440 24.8696
445 30.8847
450 27.304
455 30.8633
460 33.1767
465 35.7933
470 33.6537
475 29.7147
480 31.248
485 29.7075
490 126.675
495 680.701
500 1750.13
505 2146.84
510 1346.48
515 288.095
520 82.3927
525 54.7845
530 50.1159
535 51.6857
540 51.2702
545 48.583
550 50.8614
555 50.3469
560 50.548
565 45.2839
570 41.0174
575 36.2998
580 34.3321
585 31.7751
590 28.6721
595 28.7026
600 11.6852
Ex : 258
200 4.8241
205 3.7068
210 4.25064
215 4.02556
220 3.68173
225 5.05628
230 4.54107
235 4.2033
240 4.75705
245 23.2443
250 506.059
255 1335.37
260 367.02
265 57.6091
270 21.5977
275 18.9385
280 19.0704
285 17.795
290 14.9063
295 17.9593
300 18.2854
305 21.9749
310 19.0196
315 20.2648
320 24.1797
325 25.367
330 20.6093
335 21.8989
340 22.4126
345 23.9126
350 23.1932
355 21.9374
360 23.9224
365 25.0063
370 26.7612
375 23.6848
380 21.5297
385 21.6626
390 24.417
395 25.6892
400 25.1653
405 26.8471
410 27.4287
415 28.2489
420 27.5326
425 22.8441
430 26.6784
435 27.1886
440 24.5496
445 25.2446
450 26.5631
455 25.4762
460 27.8436
465 28.1309
470 30.7747
475 28.3157
480 26.2003
485 27.574
490 26.0268
495 31.452
500 152.336
505 1471.44
510 5321.19
515 8321.85
520 3849.22
525 673.358
530 137.041
535 68.686
540 57.886
545 50.4064
550 53.3387
555 54.2955
560 54.5334
565 53.9173
570 45.3752
575 39.9448
580 37.7011
585 32.3669
590 31.9044
595 32.892
600 24.9528
Ex : 263
200 2.81306
205 3.58749
210 4.85499
215 3.32737
220 3.9302
225 4.8828
230 4.65604
235 4.05101
240 5.17327
245 6.00301
250 69.9888
255 1367.48
260 2424.9
265 683.989
270 98.3172
275 29.9996
280 22.6341
285 23.8301
290 19.5896
295 20.098
300 18.5299
305 21.102
310 19.803
315 21.3425
320 21.9114
325 21.4647
330 20.4273
335 21.3807
340 21.9262
345 21.7496
350 21.3012
355 21.7957
360 21.6096
365 21.6164
370 21.0077
375 21.3728
380 21.6217
385 20.7032
390 21.9314
395 20.7262
400 22.4865
405 22.2722
410 23.6032
415 24.5079
420 21.8909
425 20.41
430 21.1747
435 24.6482
440 20.5864
445 21.0101
450 23.0136
455 22.5183
460 24.104
465 27.247
470 25.1163
475 22.605
480 24.0144
485 25.3156
490 26.6683
495 29.2291
500 29.5722
505 37.2202
510 539.312
515 4505.67
520 9999.9
525 9999.9
530 5665.03
535 978.732
540 183.989
545 81.6535
550 63.4354
555 58.6043
560 56.2434
565 57.1068
570 55.2221
575 54.1132
580 45.9017
585 40.5991
590 34.5923
595 34.5042
600 27.4369
Ex : 268
200 3.5816
205 3.7183
210 3.7795
215 4.33235
220 3.35633
225 3.27945
230 4.48656
235 4.62327
240 5.50356
245 5.74337
250 7.46817
255 125.732
260 2313.8
265 4418.7
270 1217.1
275 167.441
280 41.1501
285 28.1616
290 25.4389
295 23.9076
300 21.4161
305 20.972
310 20.7107
315 22.837
320 20.2039
325 21.3968
330 20.8571
335 20.1811
340 20.0371
345 20.6422
350 20.2999
355 17.5966
360 20.518
365 18.329
370 20.0653
375 19.0109
380 19.3514
385 19.707
390 19.245
395 18.7924
400 19.9294
405 19.8191
410 19.0932
415 20.5276
420 19.043
425 19.5068
430 20.0954
435 17.594
440 18.8304
445 18.9023
450 20.0308
455 20.2196
460 23.3292
465 24.9702
470 25.044
475 22.1938
480 23.2304
485 23.4581
490 23.4917
495 23.7555
500 25.8962
505 28.2037
510 32.9804
515 49.717
520 933.433
525 7588.41
530 9999.9
535 9999.9
540 7486.19
545 1286.57
550 227.143
555 95.0034
560 66.4148
565 60.8219
570 56.0909
575 55.2681
580 56.9534
585 52.1535
590 46.5161
595 38.4868
600 26.9956
Ex : 273
200 4.21311
205 3.98212
210 2.84217
215 3.57192
220 3.50328
225 4.69678
230 3.90879
235 5.29966
240 5.48072
245 5.15607
250 7.28678
255 10.9927
260 191.503
265 3644.44
270 6455.02
275 1645.88
280 221.97
285 50.5169
290 31.5027
295 29.5717
300 27.3505
305 23.7884
310 21.3513
315 22.1837
320 21.8737
325 21.5207
330 21.6069
335 21.2801
340 19.9959
345 21.3595
350 19.9749
355 18.8829
360 17.746
365 17.9239
370 17.017
375 16.898
380 18.6964
385 17.9143
390 17.6528
395 19.6992
400 17.5734
405 17.4127
410 20.9416
415 18.8719
420 17.7568
425 16.587
430 18.3929
435 18.1418
440 19.0344
445 17.6054
450 19.0942
455 19.6421
460 20.5369
465 20.1839
470 19.6417
475 19.7052
480 19.5731
485 21.2178
490 22.1759
495 22.3113
500 22.2611
505 25.6037
510 24.4649
515 30.3296
520 41.3205
525 68.9495
530 1554.68
535 9999.9
540 9999.9
545 9999.9
550 8548.51
555 1418.71
560 247.334
565 99.0928
570 70.652
575 60.0205
580 54.7426
585 54.0504
590 52.9518
595 51.9759
600 50.5965
Ex : 278
200 3.59684
205 3.76154
210 3.65107
215 3.57555
220 4.01705
225 4.81108
230 4.85441
235 5.58036
240 6.06821
245 5.4862
250 6.22428
255 9.08344
260 14.8829
265 273.96
270 4924.17
275 8256.31
280 2077.17
285 274.682
290 58.5825
295 32.7971
300 32.3395
305 27.0019
310 23.8261
315 22.535
320 21.5414
325 23.0256
330 20.8572
335 19.9502
340 19.6419
345 20.0095
350 20.7116
355 18.7765
360 18.7379
365 17.564
370 16.3107
375 16.7639
380 17.0736
385 16.8857
390 16.4147
395 17.6831
400 17.4833
405 16.1061
410 16.6794
415 17.5847
420 16.177
425 16.1694
430 16.4009
435 16.2747
440 15.4897
445 15.8596
450 18.1539
455 18.1104
460 18.082
465 18.7106
470 18.5042
475 18.6018
480 19.4258
485 19.5836
490 17.934
495 19.6976
500 20.3543
505 20.8656
510 22.903
515 23.8877
520 29.512
525 34.5706
530 45.68
535 80.7513
540 2066.9
545 9999.9
550 9999.9
555 9999.9
560 9163.18
565 1539.08
570 265.189
575 98.3268
580 69.9353
585 58.0582
590 48.3374
595 45.9132
600 51.6618
Ex : 283
200 3.49632
205 3.70274
210 3.60043
215 3.83075
220 4.24337
225 4.51689
230 4.72087
235 4.78308
240 5.42148
245 5.97413
250 6.71408
255 7.8607
260 9.73341
265 15.2433
270 356.694
275 6229.7
280 9557.16
285 2469.92
290 318.918
295 61.5812
300 31.2852
305 29.1884
310 27.8367
315 23.3043
320 21.392
325 20.3469
330 20.5659
335 20.4052
340 20.3375
345 20.3555
350 19.3016
355 18.3647
360 16.7597
365 15.7406
370 16.3958
375 14.5223
380 15.172
385 16.8262
390 16.6253
395 14.8821
400 15.8943
405 16.2992
410 15.3707
415 14.4968
420 14.8701
425 15.0239
430 15.0568
435 14.5688
440 15.189
445 15.8021
450 14.9794
455 15.5121
460 16.7558
465 17.9099
470 17.7188
475 16.4357
480 16.6102
485 17.9245
490 16.7029
495 17.0691
500 18.0769
505 17.308
510 19.4309
515 21.0394
520 23.3572
525 25.332
530 29.8628
535 38.2381
540 50.6701
545 92.5223
550 2544.22
555 9999.9
560 9999.9
565 9999.9
570 9129.7
575 1483.76
580 251.331
585 91.9143
590 61.7588
595 49.3223
600 52.5446
Ex : 288
200 3.74181
205 3.56769
210 3.49666
215 3.85474
220 3.75916
225 3.4896
230 3.91082
235 4.2963
240 4.76687
245 4.96635
250 5.88237
255 6.79376
260 7.88485
265 10.4873
270 17.1588
275 394.31
280 7092.79
285 9999.9
290 2668.59
295 342.264
300 65.0933
305 30.6635
310 28.5867
315 27.401
320 22.2906
325 20.5057
330 19.8427
335 18.5961
340 18.3527
345 18.2009
350 17.7417
355 15.9927
360 15.8014
365 15.6917
370 14.8228
375 14.8978
380 14.6067
385 13.7102
390 14.5769
395 14.9961
400 15.2736
405 15.0539
410 13.8867
415 13.3812
420 13.4667
425 13.1883
430 12.9039
435 13.7538
440 13.8238
445 13.9764
450 14.3741
455 15.2187
460 14.1304
465 15.8002
470 15.239
475 15.2535
480 14.764
485 15.2666
490 14.9685
495 15.6397
500 15.699
505 15.2402
510 16.2146
515 17.3973
520 18.6132
525 20.3971
530 21.6297
535 25.6022
540 32.7285
545 40.3771
550 54.8954
555 94.3825
560 2674.28
565 9999.9
570 9999.9
575 9999.9
580 8949.58
585 1400.82
590 233.13
595 82.223
600 62.2757
Ex : 293
200 3.66465
205 3.13615
210 3.30976
215 3.4792
220 3.37296
225 3.21628
230 3.80668
235 4.16946
240 4.19808
245 4.8502
250 5.00633
255 5.51316
260 6.34222
265 8.48035
270 11.6116
275 19.7496
280 505.317
285 8186.38
290 9999.9
295 2746.01
300 351.838
305 66.5444
310 30.2025
315 26.8023
320 27.2152
325 21.9368
330 19.7992
335 17.2906
340 17.7308
345 17.7576
350 16.5061
355 15.7359
360 15.2845
365 14.7497
370 14.0517
375 14.3402
380 13.7452
385 13.3801
390 14.9069
395 14.3651
400 13.7398
405 13.4245
410 14.003
415 14.0192
420 13.9007
425 13.6111
430 13.4054
435 12.8307
440 13.0965
445 13.6175
450 13.5503
455 13.6384
460 13.9111
465 14.781
470 13.3615
475 13.0948
480 13.7
485 12.8249
490 13.4279
495 13.8126
500 13.3118
505 13.735
510 14.598
515 15.5217
520 14.6295
525 16.3074
530 18.2371
535 20.148
540 21.6845
545 26.6512
550 31.7059
555 39.1751
560 54.6003
565 105.28
570 3037.96
575 9999.9
580 9999.9
585 9999.9
590 7467.22
595 1122.48
600 213.67
Ex : 298
200 2.76442
205 3.15386
210 3.14943
215 3.40132
220 3.72924
225 3.86818
230 3.55258
235 3.87587
240 3.80286
245 4.23494
250 4.56057
255 4.98439
260 6.33387
265 7.26318
270 8.64413
275 12.6689
280 21.5172
285 553.834
290 9257.45
295 9999.9
300 2915.87
305 371.799
310 68.9512
315 29.6009
320 27.8937
325 27.4928
330 23.1791
335 18.7426
340 17.7335
345 17.068
350 16.8385
355 14.935
360 14.3819
365 14.5173
370 13.4177
375 13.3612
380 13.3436
385 13.3777
390 13.2885
395 12.8289
400 12.6596
405 13.3057
410 12.7017
415 12.3364
420 12.3618
425 11.8696
430 11.5936
435 11.8914
440 11.568
445 12.4186
450 12.2334
455 12.8611
460 12.496
465 12.3168
470 11.8356
475 12.4276
480 12.5448
485 11.9751
490 12.0167
495 12.1734
500 11.5506
505 11.3115
510 11.7005
515 12.696
520 13.0685
525 13.8527
530 15.0727
535 15.055
540 17.088
545 19.3291
550 21.8664
555 26.8366
560 31.5898
565 40.3648
570 54.3585
575 117.656
580 3449
585 9999.9
590 9999.9
595 9999.9
600 9999.9
Ex : 303
200 2.97563
205 2.62275
210 2.72568
215 2.95988
220 3.26628
225 3.04007
230 3.33178
235 3.73435
240 3.59584
245 3.82347
250 4.19916
255 4.61251
260 5.07612
265 6.39837
270 7.09768
275 9.57838
280 13.2312
285 22.5477
290 600.562
295 9999.9
300 9999.9
305 3018.49
310 387.377
315 73.083
320 31.1616
325 26.6277
330 26.5642
335 22.5823
340 18.9004
345 16.2762
350 15.418
355 14.9451
360 13.889
365 13.3178
370 13.3027
375 12.6459
380 12.3066
385 12.221
390 12.672
395 12.686
400 12.2381
405 12.0304
410 11.994
415 11.4952
420 11.4383
425 11.3197
430 11.1836
435 10.5787
440 10.6432
445 11.0423
450 11.0535
455 11.4363
460 11.6777
465 11.7092
470 11.3168
475 11.1846
480 10.7586
485 10.9518
490 11.4399
495 11.1695
500 10.3812
505 9.86052
510 10.1813
515 10.6084
520 10.8942
525 11.1005
530 12.6543
535 13.3567
540 14.4958
545 15.0995
550 17.1694
555 18.7373
560 21.6788
565 25.3414
570 31.2653
575 39.7009
580 52.6831
585 126.703
590 3703.37
595 9999.9
600 9999.9
Ex : 308
200 2.56102
205 2.67796
210 2.79396
215 3.04208
220 3.09143
225 3.4792
230 3.10554
235 3.07996
240 3.30428
245 3.85545
250 3.91686
255 3.74936
260 4.45898
265 5.25203
270 5.88655
275 7.74088
280 9.4278
285 13.824
290 23.002
295 709.753
300 9999.9
305 9999.9
310 3106.35
315 397.466
320 75.0141
325 30.8442
330 25.6271
335 26.0279
340 23.611
345 18.2834
350 15.6068
355 13.9337
360 13.7664
365 12.9003
370 13.0552
375 12.1123
380 11.4529
385 11.7853
390 11.1698
395 12.1633
400 11.5132
405 11.2508
410 11.3816
415 11.0371
420 10.8639
425 10.0569
430 10.1079
435 10.0381
440 10.0294
445 10.1985
450 10.6788
455 10.6879
460 10.2659
465 11.5616
470 9.95593
475 10.123
480 9.98263
485 10.1754
490 9.60346
495 9.31758
500 9.92823
505 8.90529
510 8.95658
515 9.15748
520 9.18626
525 10.1061
530 10.6303
535 11.0827
540 11.6607
545 12.9577
550 13.6458
555 14.738
560 15.6116
565 18.5679
570 20.9313
575 24.4496
580 29.4108
585 37.4567
590 50.977
595 141.461
600 579.888
Ex : 313
200 2.91067
205 2.65077
210 2.84596
215 2.7025
220 2.90553
225 2.85416
230 3.11402
235 3.08343
240 3.16395
245 3.44923
250 3.75559
255 3.84404
260 3.8655
265 4.7821
270 5.53273
275 6.74725
280 8.22316
285 10.3768
290 15.0627
295 24.7901
300 741.381
305 9999.9
310 9999.9
315 3266.73
320 416.761
325 77.7215
330 31.1813
335 24.5614
340 24.9592
345 22.5489
350 18.7618
355 14.3963
360 13.8658
365 13.2386
370 12.6277
375 11.5901
380 11.5654
385 11.858
390 11.8087
395 11.4154
400 10.3372
405 10.8103
410 10.526
415 10.5053
420 9.94309
425 9.49077
430 9.36872
435 9.53299
440 9.44857
445 9.20376
450 8.95482
455 9.27988
460 9.7879
465 10.119
470 9.58633
475 9.13109
480 8.95886
485 8.86594
490 8.65659
495 9.10372
500 8.31098
505 8.75418
510 8.58384
515 8.51751
520 9.29308
525 9.26082
530 9.02348
535 9.84016
540 9.76121
545 10.3399
550 11.2682
555 12.0512
560 13.0194
565 14.0442
570 15.9821
575 17.8834
580 19.7597
585 23.4747
590 28.1204
595 35.2096
600 40.3
Ex : 318
200 2.6246
205 2.70848
210 2.85152
215 2.46488
220 2.50663
225 2.86288
230 3.25864
235 3.05135
240 3.09012
245 3.29462
250 3.08543
255 3.61131
260 4.1286
265 4.42174
270 5.23425
275 5.68704
280 6.91719
285 8.26331
290 10.7268
295 15.4843
300 26.4378
305 916.228
310 9999.9
315 9999.9
320 3434.15
325 438.823
330 80.7087
335 31.9824
340 24.7248
345 23.8828
350 23.6824
355 19.1571
360 15.081
365 13.4035
370 12.7542
375 12.3626
380 11.5835
385 11.1742
390 10.8584
395 11.0442
400 10.6401
405 10.1093
410 10.1576
415 9.60197
420 9.59596
425 8.83368
430 8.87228
435 9.08303
440 8.82665
445 8.58198
450 8.96352
455 8.44264
460 8.95743
465 8.95367
470 9.29508
475 8.88486
480 8.54764
485 7.95451
490 8.10549
495 8.54125
500 8.28251
505 8.15837
510 8.22014
515 7.90974
520 8.05225
525 8.12116
530 8.36455
535 8.62178
540 8.86832
545 9.45098
550 10.0372
555 10.4285
560 11.0627
565 11.3401
570 12.7677
575 13.6371
580 14.3787
585 16.9202
590 18.9859
595 22.3569
600 22.3156
Ex : 323
200 2.65333
205 2.68021
210 2.69498
215 2.8154
220 2.88592
225 2.86779
230 3.02833
235 2.99579
240 2.9191
245 3.12555
250 3.21991
255 3.67008
260 3.56094
265 3.94649
270 4.62944
275 5.17833
280 6.27159
285 7.06124
290 8.55774
295 10.8165
300 16.4635
305 27.9917
310 951.363
315 9999.9
320 9999.9
325 3874.44
330 491.351
335 88.1465
340 32.8712
345 23.429
350 22.9582
355 22.8566
360 19.628
365 15.4958
370 13.2525
375 12.3688
380 11.8657
385 11.3648
390 11.5858
395 10.7413
400 10.5688
405 9.9381
410 10.0889
415 9.39274
420 8.90918
425 8.80251
430 8.51162
435 8.53449
440 8.46165
445 8.30774
450 8.44239
455 8.08042
460 8.80924
465 8.55309
470 8.33682
475 7.91717
480 8.00612
485 7.82742
490 8.02977
495 7.49901
500 7.58394
505 7.58685
510 7.02134
515 7.49763
520 7.29517
525 7.35568
530 7.58162
535 8.44505
540 7.59182
545 8.34176
550 8.31133
555 8.91075
560 9.10616
565 9.63058
570 9.93231
575 10.8733
580 11.8139
585 12.4255
590 13.9879
595 16.048
600 18.6441
Ex : 328
200 2.45969
205 2.58421
210 2.39021
215 2.9435
220 2.79927
225 2.75666
230 2.80165
235 2.80425
240 2.94222
245 2.92002
250 3.00804
255 3.66722
260 3.62973
265 3.70125
270 4.11378
275 4.71594
280 5.34798
285 5.94371
290 7.15425
295 8.67111
300 11.715
305 17.2499
310 29.1389
315 995.708
320 9999.9
325 9999.9
330 3880.99
335 493.437
340 88.0291
345 33.5394
350 23.6073
355 21.831
360 22.0305
365 19.5961
370 15.4513
375 13.1955
380 12.4755
385 11.702
390 11.5154
395 10.7034
400 10.6332
405 9.74607
410 10.014
415 9.67408
420 8.89791
425 8.83204
430 8.31393
435 7.89941
440 7.63316
445 8.00165
450 8.00766
455 8.23125
460 8.2262
465 8.52592
470 8.2259
475 7.4507
480 7.22591
485 7.13772
490 7.26875
495 7.01503
500 7.37849
505 6.92169
510 6.58868
515 6.73464
520 6.98257
525 6.90848
530 7.209
535 7.31084
540 7.31989
545 7.57023
550 7.92215
555 8.15569
560 8.14232
565 8.59759
570 8.94265
575 8.94034
580 9.34209
585 9.87627
590 10.6303
595 12.1441
600 12.2609
Ex : 333
200 2.33488
205 2.47027
210 2.19688
215 2.22523
220 2.21269
225 2.59583
230 2.77474
235 2.61485
240 2.88183
245 2.69352
250 2.91401
255 2.87572
260 3.25512
265 3.28939
270 3.78243
275 3.98861
280 4.63586
285 5.50236
290 6.28369
295 7.16294
300 9.13564
305 12.2159
310 17.5734
315 30.3742
320 1149.92
325 9999.9
330 9999.9
335 4098.62
340 517.94
345 90.5731
350 33.8137
355 23.1418
360 20.401
365 20.7517
370 19.8672
375 16.4667
380 13.0191
385 12.0305
390 12.5097
395 11.4302
400 10.6491
405 9.92289
410 9.75694
415 9.16653
420 8.98625
425 8.4645
430 8.20906
435 8.18244
440 7.90072
445 7.65518
450 7.75723
455 7.79641
460 7.77611
465 8.35359
470 8.32382
475 7.63432
480 7.17506
485 7.17923
490 7.40884
495 6.44468
500 6.79792
505 6.6305
510 6.48158
515 6.80295
520 6.57834
525 6.87867
530 6.61793
535 7.1269
540 6.90509
545 7.28456
550 7.25249
555 6.97755
560 7.63177
565 7.88145
570 7.9651
575 8.04148
580 8.4831
585 8.74938
590 9.29226
595 9.54834
600 7.07819
Ex : 338
200 2.65298
205 2.22413
210 2.13447
215 2.35234
220 2.35331
225 2.59516
230 2.4499
235 2.68949
240 2.83139
245 2.82444
250 2.93534
255 2.94212
260 3.27619
265 3.28887
270 3.74098
275 3.82235
280 4.41937
285 4.52612
290 5.31784
295 6.26133
300 7.39948
305 9.44966
310 12.5563
315 18.8945
320 32.243
325 1293.3
330 9999.9
335 9999.9
340 4246.26
345 535.291
350 92.9873
355 33.8664
360 23.085
365 20.4636
370 20.2051
375 19.4474
380 17.903
385 14.1254
390 12.8482
395 11.8851
400 11.1739
405 10.4853
410 10.1533
415 10.1606
420 9.1536
425 8.91224
430 8.46226
435 7.84858
440 7.93497
445 7.96972
450 7.80694
455 7.8425
460 7.76377
465 7.92588
470 7.88989
475 7.17417
480 6.98157
485 6.89624
490 6.9339
495 6.22224
500 6.5024
505 6.432
510 6.52244
515 6.13323
520 6.24813
525 6.30559
530 6.26092
535 6.61657
540 6.40797
545 6.38966
550 6.75484
555 6.16843
560 6.66557
565 6.67743
570 6.72199
575 7.11844
580 7.2321
585 7.57946
590 8.13821
595 8.20132
600 9.79532
Ex : 343
200 1.9966
205 2.22975
210 2.2816
215 2.29137
220 2.22137
225 2.14743
230 2.4514
235 2.28304
240 2.79826
245 2.7693
250 2.73076
255 2.97816
260 3.05741
265 2.93314
270 3.35954
275 3.7656
280 3.81236
285 4.24361
290 4.65277
295 5.87851
300 6.37696
305 7.54577
310 10.0263
315 13.2527
320 19.6622
325 34.9257
330 1291.55
335 9999.9
340 9999.9
345 4479.54
350 563.603
355 95.719
360 34.5497
365 23.397
370 19.7074
375 19.4118
380 18.9621
385 17.9766
390 15.0034
395 12.7073
400 11.5221
405 10.7501
410 10.1906
415 9.86078
420 9.2067
425 8.5764
430 8.1571
435 8.20059
440 7.82535
445 7.48436
450 7.72005
455 7.71748
460 7.30582
465 7.69396
470 7.17844
475 7.10991
480 7.01037
485 6.44214
490 6.84072
495 6.50613
500 6.19239
505 5.78474
510 6.03936
515 5.85076
520 5.77545
525 6.05452
530 6.33629
535 6.08034
540 5.84688
545 6.15296
550 5.91951
555 6.12625
560 6.18966
565 6.19939
570 6.05344
575 6.10487
580 6.31728
585 6.79924
590 6.8391
595 7.13334
600 9.28929
Ex : 348
200 1.92585
205 1.87016
210 2.04728
215 2.00849
220 2.0788
225 2.32285
230 2.32413
235 2.32911
240 2.36874
245 2.48966
250 2.59245
255 2.81661
260 2.80049
265 3.07248
270 3.16784
275 3.22816
280 3.60843
285 3.90435
290 4.26594
295 4.81293
300 5.41454
305 6.41655
310 7.61192
315 10.1455
320 13.8665
325 20.3831
330 35.4364
335 1244.91
340 9999.9
345 9999.9
350 5221.76
355 650.857
360 107.381
365 36.3041
370 23.6086
375 19.1223
380 18.7836
385 19.085
390 17.8579
395 15.2885
400 12.9247
405 11.5193
410 10.1333
415 9.86504
420 9.74261
425 8.84369
430 8.44427
435 8.07589
440 7.90411
445 7.69102
450 7.70908
455 7.6777
460 7.71666
465 7.26724
470 7.30031
475 6.98943
480 6.73591
485 6.52731
490 6.16396
495 6.07897
500 6.04621
505 6.19955
510 5.60331
515 5.36914
520 5.77085
525 5.44527
530 5.50646
535 5.51576
540 5.65334
545 5.46588
550 5.8321
555 5.61092
560 5.33911
565 5.56581
570 5.39674
575 5.67424
580 5.44644
585 5.48192
590 5.38657
595 5.85836
600 5.29557
Ex : 353
200 1.84492
205 2.01727
210 1.7728
215 1.91319
220 1.92162
225 1.97032
230 2.10679
235 1.93583
240 2.23896
245 2.3639
250 2.46026
255 2.66647
260 2.7263
265 2.85589
270 2.91237
275 3.17157
280 3.46596
285 3.6453
290 3.88985
295 4.44676
300 4.91253
305 5.78102
310 6.57845
315 8.16122
320 10.9306
325 14.0927
330 21.0987
335 36.4542
340 1342.42
345 9999.9
350 9999.9
355 5069.34
360 633.106
365 105.809
370 35.8918
375 23.5465
380 19.4426
385 17.9116
390 18.4049
395 18.1445
400 15.9076
405 12.8321
410 11.3404
415 10.7713
420 9.70594
425 9.29567
430 8.93143
435 8.79451
440 7.81788
445 7.48453
450 7.39842
455 7.20227
460 7.47624
465 7.67763
470 6.99183
475 6.61859
480 6.65026
485 6.23286
490 6.33531
495 6.3511
500 5.95615
505 5.72065
510 5.67044
515 5.15034
520 5.29611
525 5.06526
530 5.15266
535 5.18259
540 5.1493
545 5.14225
550 5.12134
555 5.22365
560 5.37709
565 5.23059
570 5.22886
575 5.04191
580 5.0737
585 5.01507
590 5.27591
595 5.09866
600 4.78565
Ex : 358
200 1.76914
205 2.03482
210 1.83441
215 1.7339
220 1.77132
225 2.00747
230 2.00708
235 2.056
240 2.00112
245 2.15585
250 2.27667
255 2.42745
260 2.54778
265 2.54298
270 2.69763
275 2.82407
280 3.15606
285 3.27517
290 3.53393
295 4.0379
300 4.30097
305 4.92582
310 5.81584
315 6.91133
320 8.5579
325 11.1353
330 14.6148
335 21.0934
340 36.3255
345 1321.21
350 9999.9
355 9999.9
360 5327.16
365 665.714
370 110.809
375 37.164
380 23.5661
385 19.0712
390 17.0834
395 18.0084
400 17.8299
405 16.1003
410 13.2263
415 11.1779
420 10.0599
425 9.2866
430 8.70985
435 8.55319
440 8.17435
445 8.19193
450 7.65802
455 7.62881
460 7.53079
465 7.56723
470 6.93268
475 6.54104
480 6.37238
485 6.09068
490 5.87816
495 6.00084
500 5.61927
505 5.31885
510 5.19877
515 5.15782
520 4.87305
525 4.82103
530 4.58911
535 4.87988
540 4.76083
545 4.76882
550 4.6566
555 4.707
560 4.75358
565 4.60984
570 4.40182
575 4.71027
580 4.66186
585 4.32817
590 4.3736
595 4.50497
600 4.4745
Ex : 363
200 1.80405
205 1.68233
210 1.62895
215 1.64977
220 1.70905
225 1.97058
230 1.85459
235 1.92841
240 2.04536
245 2.03017
250 2.00577
255 2.11013
260 2.37192
265 2.27278
270 2.6082
275 2.58731
280 2.92949
285 3.05672
290 3.29291
295 3.46961
300 3.6404
305 4.34401
310 4.86523
315 5.89856
320 6.32697
325 8.2042
330 10.4516
335 14.8276
340 20.924
345 36.2785
350 1216
355 9999.9
360 9999.9
365 5637.45
370 702.22
375 113.693
380 36.8281
385 23.3827
390 19.2629
395 16.2292
400 16.5179
405 16.8891
410 16.1078
415 13.5743
420 10.7266
425 9.75495
430 9.09204
435 8.57463
440 8.26665
445 7.8797
450 7.44604
455 7.42749
460 7.2822
465 7.33384
470 6.68441
475 6.32824
480 6.23243
485 5.73903
490 5.67389
495 5.26425
500 5.44689
505 5.39698
510 5.18396
515 4.83701
520 4.46246
525 4.39797
530 4.39695
535 4.43003
540 4.36208
545 4.50678
550 4.39362
555 4.29148
560 4.50437
565 4.47244
570 4.25698
575 4.18298
580 4.34822
585 4.19508
590 4.07677
595 4.22712
600 4.78245
Ex : 368
200 1.63327
205 1.62907
210 1.65931
215 1.74655
220 1.65399
225 1.7143
230 1.87771
235 1.86148
240 1.79012
245 1.91203
250 2.00254
255 2.10867
260 2.19886
265 2.2612
270 2.47672
275 2.45736
280 2.78518
285 2.82774
290 3.12209
295 3.27425
300 3.52554
305 3.91211
310 4.41354
315 4.95981
320 5.75409
325 7.14311
330 8.54074
335 10.6937
340 14.4847
345 21.5593
350 36.1283
355 1045.69
360 9999.9
365 9999.9
370 6313.36
375 784.718
380 123.892
385 38.6123
390 24.4677
395 19.2377
400 15.7249
405 15.6321
410 16.2788
415 15.7806
420 13.7284
425 11.0108
430 9.36465
435 8.78869
440 8.22614
445 8.23997
450 7.60754
455 7.27153
460 7.07142
465 7.54495
470 6.87712
475 6.37479
480 6.31975
485 5.66518
490 5.78507
495 5.27876
500 5.26261
505 4.92493
510 4.78402
515 4.63851
520 4.51844
525 4.37513
530 4.42567
535 4.50224
540 4.15601
545 4.26141
550 4.12916
555 4.0339
560 4.09869
565 4.01448
570 3.86904
575 3.9289
580 3.85978
585 3.76543
590 3.60927
595 3.7557
600 2.70666
Ex : 373
200 1.53647
205 1.62345
210 1.6458
215 1.6751
220 1.68071
225 1.66016
230 1.87093
235 1.64236
240 1.82414
245 1.7481
250 1.76419
255 2.06321
260 2.12618
265 2.21635
270 2.22852
275 2.36229
280 2.46232
285 2.71549
290 2.84394
295 3.13618
300 3.31426
305 3.58803
310 4.06471
315 4.60243
320 5.43772
325 6.0845
330 7.21416
335 8.72639
340 11.4397
345 14.9877
350 22.1118
355 36.9935
360 1290.29
365 9999.9
370 9999.9
375 6366.28
380 788.285
385 124.934
390 39.4404
395 24.4517
400 18.9509
405 15.2951
410 14.8437
415 15.8318
420 15.466
425 14.0255
430 11.3959
435 9.67222
440 8.94283
445 8.54274
450 8.04047
455 7.97636
460 7.38137
465 7.41864
470 6.86828
475 6.48288
480 6.10573
485 5.90814
490 5.8321
495 5.44913
500 5.0473
505 4.78729
510 4.71373
515 4.48929
520 4.41438
525 4.25052
530 4.18864
535 4.01708
540 4.1543
545 3.99759
550 3.91445
555 3.98967
560 3.7364
565 3.71207
570 3.74617
575 3.72294
580 3.5275
585 3.50945
590 3.37338
595 3.2749
600 4.25761
Ex : 378
200 1.65277
205 1.70438
210 1.66858
215 1.79215
220 1.69662
225 1.63467
230 1.8148
235 1.76535
240 1.89587
245 1.83945
250 1.86082
255 1.96003
260 2.14003
265 2.07956
270 2.08237
275 2.23493
280 2.25771
285 2.44978
290 2.83077
295 2.90005
300 3.26912
305 3.47837
310 3.68241
315 4.0091
320 4.47077
325 5.05488
330 6.201
335 7.43839
340 8.91996
345 11.3608
350 15.2793
355 22.7124
360 37.9054
365 1264.99
370 9999.9
375 9999.9
380 6510.24
385 807.225
390 127.984
395 40.0053
400 24.5045
405 19.2164
410 15.4389
415 14.0352
420 14.8147
425 14.8926
430 13.8564
435 11.8299
440 9.93329
445 9.06157
450 8.52769
455 7.91075
460 7.62611
465 7.3354
470 7.0538
475 6.52139
480 6.22715
485 5.72432
490 5.63348
495 5.21343
500 4.96531
505 5.04359
510 4.73612
515 4.35182
520 4.30621
525 4.18139
530 4.32944
535 3.88556
540 3.60965
545 3.67817
550 3.78418
555 3.75031
560 3.8103
565 3.60342
570 3.50422
575 3.26575
580 3.22556
585 3.13172
590 3.16278
595 3.32349
600 3.20407
Ex : 383
200 1.55606
205 1.54563
210 1.64684
215 1.54125
220 1.6375
225 1.58172
230 1.74179
235 1.86365
240 1.74255
245 1.91528
250 1.75021
255 1.88282
260 1.87237
265 2.06335
270 2.23526
275 2.09706
280 2.38646
285 2.4093
290 2.60662
295 2.69225
300 2.96818
305 3.30968
310 3.54231
315 3.79943
320 4.15779
325 4.64807
330 5.34457
335 6.221
340 7.33375
345 9.08167
350 11.4313
355 15.2194
360 23.0421
365 38.976
370 1196.14
375 9999.9
380 9999.9
385 6981.94
390 864.521
395 134.91
400 40.8457
405 24.4142
410 18.5823
415 14.7586
420 13.6681
425 13.9985
430 14.3804
435 14.062
440 11.8276
445 10.0515
450 9.18274
455 8.59775
460 8.02477
465 7.76528
470 7.4639
475 6.63375
480 6.1319
485 5.76122
490 5.5767
495 5.27015
500 4.96281
505 4.56428
510 4.50827
515 4.39154
520 4.29814
525 4.06234
530 3.95012
535 3.89178
540 3.59213
545 3.65141
550 3.59316
555 3.38644
560 3.42108
565 3.33244
570 3.2634
575 3.39369
580 3.1296
585 3.02778
590 2.8349
595 2.90082
600 2.63535
Ex : 388
200 1.54081
205 1.58241
210 1.52726
215 1.66255
220 1.649
225 1.63152
230 1.77488
235 1.70642
240 1.72009
245 1.77452
250 1.80263
255 1.8973
260 2.03174
265 1.99339
270 2.13578
275 2.31127
280 2.33588
285 2.41218
290 2.68021
295 2.7909
300 3.11005
305 3.16726
310 3.2609
315 3.61312
320 4.07714
325 4.54042
330 4.9733
335 5.71429
340 6.55746
345 7.71639
350 9.38136
355 11.9672
360 16.1516
365 23.9529
370 40.9186
375 1330.09
380 9999.9
385 9999.9
390 7162.06
395 883.283
400 136.951
405 41.1623
410 24.8803
415 19.4624
420 15.107
425 13.1582
430 13.9054
435 14.408
440 13.8648
445 12.5946
450 10.5897
455 9.19997
460 8.65431
465 8.29209
470 7.48405
475 6.77887
480 6.42306
485 5.90996
490 5.71246
495 5.37988
500 5.0658
505 4.88345
510 4.59203
515 4.19369
520 4.3177
525 4.0895
530 4.03777
535 3.87459
540 3.77884
545 3.77626
550 3.66843
555 3.41096
560 3.32229
565 3.26925
570 3.1815
575 3.03447
580 3.07416
585 2.76618
590 2.82499
595 2.73762
600 3.40094
Ex : 393
200 1.59827
205 1.53912
210 1.5931
215 1.64292
220 1.69297
225 1.63989
230 1.81105
235 1.71926
240 1.65797
245 1.77125
250 1.86917
255 1.90487
260 1.94088
265 1.93304
270 1.97481
275 2.18017
280 2.39523
285 2.28221
290 2.56667
295 2.49071
300 2.83198
305 3.05844
310 3.31528
315 3.39389
320 3.84756
325 4.05107
330 4.63537
335 5.13258
340 5.67915
345 6.59997
350 7.70237
355 9.71851
360 12.0706
365 16.4242
370 24.3423
375 40.9089
380 1236.44
385 9999.9
390 9999.9
395 7458.73
400 921
405 142.532
410 41.475
415 24.425
420 18.8822
425 14.5472
430 12.4025
435 12.8117
440 13.8182
445 13.8885
450 13.0575
455 10.8014
460 9.34431
465 8.44766
470 7.74001
475 6.91754
480 6.59885
485 6.23699
490 5.98355
495 5.54899
500 5.22816
505 5.02441
510 4.68582
515 4.44817
520 4.16932
525 4.06631
530 3.97041
535 3.93453
540 3.76313
545 3.56441
550 3.5294
555 3.55471
560 3.29974
565 3.09497
570 2.92227
575 2.96941
580 2.87594
585 2.81061
590 2.8717
595 2.77486
600 2.88602
Ex : 398
200 1.51492
205 1.47229
210 1.63195
215 1.67818
220 1.67091
225 1.74408
230 1.74004
235 1.76783
240 1.74547
245 1.88877
250 1.84296
255 1.80345
260 1.98206
265 2.0126
270 2.12166
275 2.04709
280 2.19799
285 2.36395
290 2.5247
295 2.52615
300 2.60615
305 2.91733
310 2.89708
315 3.3885
320 3.43012
325 3.83644
330 3.91853
335 4.5167
340 5.1772
345 5.66552
350 6.96986
355 8.07675
360 9.66668
365 12.3645
370 16.8569
375 24.2993
380 41.7873
385 1323.28
390 9999.9
395 9999.9
400 7474.3
405 922.271
410 142.362
415 41.8399
420 24.1339
425 18.3404
430 14.4741
435 12.1649
440 11.9542
445 13.5517
450 13.5187
455 13.0247
460 11.3782
465 9.28521
470 8.25259
475 7.10884
480 6.61394
485 6.12958
490 5.8931
495 5.631
500 5.11625
505 4.99218
510 4.82555
515 4.46028
520 4.167
525 4.17628
530 3.94603
535 3.92621
540 3.61671
545 3.53134
550 3.69411
555 3.42401
560 3.29549
565 3.20455
570 3.09948
575 3.02193
580 2.85476
585 2.78742
590 2.72164
595 2.53215
600 2.47774
Ex : 403
200 1.51902
205 1.52113
210 1.50267
215 1.5648
220 1.60567
225 1.69825
230 1.68687
235 1.65147
240 1.83495
245 1.82562
250 1.79435
255 1.94476
260 1.83709
265 1.83845
270 1.98368
275 2.02104
280 2.11926
285 2.22252
290 2.37843
295 2.54255
300 2.51064
305 2.79086
310 2.88932
315 3.10884
320 3.39772
325 3.65629
330 4.22886
335 4.47942
340 4.73849
345 5.38171
350 5.91724
355 6.83687
360 8.08438
365 10.095
370 12.6629
375 17.3443
380 25.321
385 44.2367
390 1450.76
395 9999.9
400 9999.9
405 7586.97
410 933.835
415 144.085
420 41.4394
425 24.2521
430 18.6636
435 14.2584
440 12.3489
445 11.7244
450 13.1441
455 13.2545
460 12.6776
465 11.6091
470 9.43101
475 7.76919
480 7.0917
485 6.69451
490 6.1037
495 5.65019
500 5.31459
505 4.99179
510 4.71001
515 4.60532
520 4.36238
525 4.20383
530 3.82909
535 3.79573
540 3.77928
545 3.70702
550 3.62963
555 3.52643
560 3.55882
565 3.25716
570 2.98366
575 2.84426
580 2.81937
585 2.73275
590 2.69436
595 2.60209
600 2.44126
Ex : 408
200 1.41359
205 1.48976
210 1.42722
215 1.50405
220 1.46005
225 1.66569
230 1.70501
235 1.6632
240 1.75661
245 1.86062
250 1.80179
255 1.75839
260 1.70023
265 1.76355
270 1.98729
275 1.96742
280 2.09692
285 2.21919
290 2.20554
295 2.47275
300 2.54184
305 2.81438
310 2.87786
315 3.01421
320 3.16232
325 3.43077
330 3.81006
335 4.21347
340 4.62674
345 4.85031
350 5.53348
355 6.03406
360 7.05374
365 8.46822
370 10.4887
375 13.4811
380 17.8804
385 26.0756
390 46.6854
395 1436.32
400 9999.9
405 9999.9
410 7360.71
415 907.89
420 140.133
425 40.2288
430 24.0166
435 18.3837
440 14.0393
445 12.642
450 11.6477
455 12.5799
460 13.2405
465 12.8854
470 11.6698
475 9.3303
480 7.83441
485 6.73571
490 6.28161
495 5.88518
500 5.40985
505 5.03995
510 4.74643
515 4.67158
520 4.60893
525 4.33817
530 3.89175
535 3.66704
540 3.62017
545 3.67662
550 3.49322
555 3.52893
560 3.37746
565 3.21799
570 3.07116
575 2.97777
580 2.75544
585 2.63847
590 2.39467
595 2.55879
600 2.75532
Ex : 413
200 1.33916
205 1.31903
210 1.47654
215 1.59737
220 1.44585
225 1.59677
230 1.53625
235 1.58445
240 1.55884
245 1.59957
250 1.7169
255 1.80057
260 1.78073
265 1.81286
270 1.89746
275 1.89846
280 2.09478
285 2.12543
290 2.15585
295 2.19283
300 2.38585
305 2.42189
310 2.73598
315 2.91531
320 2.8933
325 3.33828
330 3.48171
335 3.91607
340 4.26104
345 4.53776
350 4.95978
355 5.62152
360 6.22332
365 7.17749
370 8.55846
375 10.5733
380 13.4504
385 18.5108
390 27.5737
395 47.1831
400 1619.25
405 9999.9
410 9999.9
415 7133.18
420 879.063
425 136.667
430 39.8826
435 23.9826
440 18.4359
445 14.0498
450 12.2458
455 11.5719
460 12.0531
465 12.9189
470 12.24
475 11.0652
480 9.37252
485 7.61535
490 6.64993
495 6.2057
500 5.63602
505 5.3173
510 5.04889
515 4.8433
520 4.58031
525 4.43147
530 4.16653
535 3.77234
540 3.72603
545 3.70383
550 3.42563
555 3.44281
560 3.2194
565 3.26977
570 2.91372
575 2.85851
580 2.71255
585 2.62831
590 2.58288
595 2.4469
600 2.8173
Ex : 418
200 1.45052
205 1.48214
210 1.45483
215 1.57266
220 1.48416
225 1.46207
230 1.55824
235 1.4573
240 1.57486
245 1.66981
250 1.79153
255 1.77043
260 1.74146
265 1.93059
270 1.99755
275 1.95071
280 1.82329
285 2.12565
290 2.11253
295 2.22555
300 2.22444
305 2.43891
310 2.75898
315 2.72982
320 2.98497
325 3.13627
330 3.40453
335 3.62428
340 3.75656
345 4.19983
350 4.66679
355 5.27776
360 5.67855
365 6.45768
370 7.232
375 8.87568
380 10.8085
385 14.0314
390 19.3947
395 28.2883
400 49.1726
405 1567.33
410 9999.9
415 9999.9
420 7562.43
425 929.553
430 143.626
435 41.4217
440 24.6502
445 18.9947
450 14.6694
455 12.5286
460 11.896
465 11.9187
470 12.2823
475 11.8317
480 11.1335
485 9.57155
490 7.88158
495 6.49317
500 6.02678
505 5.45294
510 5.38388
515 4.89776
520 4.59437
525 4.60491
530 4.25666
535 4.09806
540 3.77552
545 3.68599
550 3.77666
555 3.50054
560 3.44323
565 3.30605
570 3.12801
575 2.93056
580 2.70553
585 2.6836
590 2.48119
595 2.33023
600 2.49745
Ex : 423
200 1.41776
205 1.42629
210 1.39849
215 1.40257
220 1.49596
225 1.49473
230 1.54032
235 1.60814
240 1.50807
245 1.53817
250 1.65511
255 1.66981
260 1.73016
265 1.94497
270 1.95836
275 1.9613
280 1.99491
285 2.00384
290 1.96943
295 2.21247
300 2.17655
305 2.35819
310 2.38169
315 2.76213
320 2.78853
325 2.98182
330 3.21442
335 3.48057
340 3.8022
345 4.09877
350 4.42089
355 4.62622
360 5.25059
365 5.92528
370 6.63077
375 7.84246
380 9.30875
385 11.6279
390 14.8295
395 20.1972
400 29.2881
405 50.7418
410 1651.83
415 9999.9
420 9999.9
425 7365.58
430 909.228
435 142.442
440 41.5928
445 25.7545
450 19.6548
455 15.1106
460 13.145
465 12.3617
470 12.0009
475 11.962
480 11.4741
485 10.6147
490 9.7557
495 8.05925
500 6.77367
505 5.84161
510 5.39091
515 5.20321
520 4.989
525 4.55115
530 4.29482
535 4.16069
540 3.7659
545 3.66452
550 3.46042
555 3.6061
560 3.38796
565 3.26147
570 3.25631
575 2.89548
580 2.74794
585 2.64052
590 2.50534
595 2.5404
600 2.50218
Ex : 428
200 1.42164
205 1.49355
210 1.38457
215 1.48321
220 1.55097
225 1.4715
230 1.49423
235 1.56814
240 1.58251
245 1.60632
250 1.68823
255 1.74299
260 1.79926
265 1.86304
270 1.94299
275 1.94887
280 1.93962
285 2.05687
290 1.98775
295 2.18816
300 2.25415
305 2.467
310 2.31603
315 2.47693
320 2.73793
325 2.77638
330 3.12221
335 3.36967
340 3.58402
345 3.93988
350 4.20055
355 4.67806
360 4.84663
365 5.61336
370 6.05339
375 6.91099
380 8.27136
385 10.162
390 11.8595
395 15.9198
400 20.9789
405 30.5876
410 53.4271
415 1830.61
420 9999.9
425 9999.9
430 7748.72
435 954.606
440 148.324
445 44.6175
450 26.5838
455 20.2757
460 15.8412
465 14.1392
470 12.2464
475 11.2159
480 11.4267
485 11.5854
490 10.5723
495 9.50419
500 8.39923
505 6.74463
510 6.00071
515 5.38008
520 5.12778
525 4.6328
530 4.43241
535 4.33157
540 4.07437
545 3.86885
550 3.62463
555 3.53995
560 3.34924
565 3.34401
570 2.99116
575 2.8714
580 2.57526
585 2.67256
590 2.62641
595 2.37472
600 2.6669
Ex : 433
200 1.41578
205 1.42424
210 1.46339
215 1.43379
220 1.40646
225 1.38313
230 1.48394
235 1.46857
240 1.56283
245 1.67003
250 1.54576
255 1.67624
260 1.81401
265 1.80741
270 1.73012
275 1.90895
280 2.03857
285 2.1456
290 2.17629
295 2.13382
300 2.31654
305 2.46347
310 2.38958
315 2.71296
320 2.7079
325 2.89954
330 3.09204
335 3.38182
340 3.64799
345 3.58724
350 3.94179
355 4.3773
360 4.77319
365 4.99751
370 5.78273
375 6.36306
380 7.09784
385 8.52567
390 10.3395
395 12.453
400 16.441
405 21.8359
410 31.9985
415 56.1844
420 2010.47
425 9999.9
430 9999.9
435 7545.6
440 929.899
445 147.664
450 44.2974
455 26.9562
460 20.8297
465 16.5054
470 13.6919
475 11.8334
480 10.8134
485 10.7143
490 11.2249
495 10.1792
500 9.41115
505 8.53229
510 6.87414
515 5.81
520 5.22175
525 5.05336
530 4.56068
535 4.39615
540 4.21102
545 4.18055
550 3.85131
555 3.64796
560 3.37101
565 3.20459
570 3.23575
575 3.10637
580 2.87817
585 2.81486
590 2.5159
595 2.51141
600 1.83665
Ex : 438
200 1.40603
205 1.52497
210 1.45381
215 1.39866
220 1.47273
225 1.47775
230 1.47371
235 1.603
240 1.58052
245 1.73562
250 1.68694
255 1.62985
260 1.72783
265 1.76371
270 1.83592
275 1.97083
280 2.10431
285 2.19656
290 2.24172
295 2.16752
300 2.23082
305 2.29577
310 2.53193
315 2.54629
320 2.62129
325 2.82936
330 3.02842
335 3.08387
340 3.40106
345 3.81747
350 3.85975
355 4.10878
360 4.27678
365 4.8668
370 5.36765
375 5.89729
380 6.59642
385 7.73631
390 9.10235
395 10.7494
400 12.8581
405 16.6144
410 22.6932
415 33.053
420 56.029
425 1948.56
430 9999.9
435 9999.9
440 7665.3
445 947.106
450 150.575
455 45.5683
460 28.3327
465 21.9724
470 16.2376
475 13.3027
480 12.2411
485 10.8427
490 10.7917
495 10.6243
500 10.2355
505 9.16522
510 8.51005
515 7.08117
520 6.02998
525 5.28938
530 5.28474
535 4.70906
540 4.33931
545 4.09593
550 3.91834
555 3.78028
560 3.61812
565 3.32766
570 3.2969
575 3.13867
580 2.86441
585 2.74217
590 2.65914
595 2.49858
600 1.81958
Ex : 443
200 1.4769
205 1.56867
210 1.46924
215 1.51143
220 1.56583
225 1.60341
230 1.53932
235 1.66474
240 1.66517
245 1.74097
250 1.67538
255 1.71528
260 1.65432
265 1.75094
270 1.8671
275 1.81807
280 2.03412
285 2.19128
290 2.26528
295 2.30153
300 2.27337
305 2.27416
310 2.30064
315 2.62481
320 2.61698
325 2.81514
330 3.00784
335 3.12183
340 3.39932
345 3.63726
350 3.86679
355 4.07523
360 4.4049
365 4.81431
370 5.08905
375 5.83442
380 6.24109
385 6.9917
390 8.03629
395 9.57801
400 11.1736
405 13.6325
410 17.1745
415 23.7323
420 34.4052
425 58.1337
430 2142.15
435 9999.9
440 9999.9
445 7785.98
450 962.316
455 153.781
460 48.2869
465 30.0535
470 22.06
475 15.7663
480 13.4263
485 12.2243
490 11.1806
495 10.5106
500 10.7633
505 10.3014
510 9.12117
515 8.52153
520 7.40526
525 6.26691
530 5.35718
535 5.00086
540 4.70683
545 4.42416
550 4.36055
555 3.96103
560 3.8139
565 3.77747
570 3.45784
575 3.2636
580 3.07185
585 3.01023
590 2.6782
595 2.54226
600 2.75154
Ex : 448
200 1.59437
205 1.52499
210 1.7779
215 1.62326
220 1.67695
225 1.58096
230 1.63821
235 1.51558
240 1.49667
245 1.64217
250 1.61488
255 1.71241
260 1.7274
265 1.75647
270 1.81457
275 1.96541
280 2.07331
285 2.09978
290 2.08019
295 2.25596
300 2.33822
305 2.28736
310 2.37357
315 2.51737
320 2.79686
325 2.73861
330 2.8032
335 3.2019
340 3.23721
345 3.45564
350 3.74969
355 4.1535
360 4.40145
365 4.73701
370 4.90082
375 5.32955
380 5.96735
385 6.62992
390 7.48276
395 8.61444
400 10.2418
405 11.9713
410 14.4267
415 18.6058
420 24.5332
425 34.4685
430 59.624
435 2245.29
440 9999.9
445 9999.9
450 7804.74
455 965.413
460 156.769
465 50.2196
470 29.6933
475 21.584
480 15.8769
485 13.3287
490 11.9658
495 11.2159
500 10.3059
505 10.0736
510 10.1497
515 9.0924
520 8.43019
525 7.54113
530 6.52937
535 5.49012
540 5.31441
545 4.68409
550 4.54664
555 4.32117
560 3.84669
565 3.79655
570 3.68984
575 3.1486
580 3.12008
585 3.02507
590 2.87252
595 2.85156
600 2.6827
Ex : 453
200 1.57135
205 1.69259
210 1.60122
215 1.56993
220 1.59464
225 1.76501
230 1.6276
235 1.70431
240 1.61529
245 1.70979
250 1.70697
255 1.60829
260 1.71036
265 1.80279
270 1.902
275 1.93602
280 2.02258
285 2.02224
290 2.25562
295 2.32472
300 2.34239
305 2.37921
310 2.64929
315 2.4947
320 2.58945
325 2.75833
330 2.89445
335 3.00745
340 3.3066
345 3.28583
350 3.62464
355 3.98322
360 4.13729
365 4.38065
370 4.78252
375 5.24379
380 5.50078
385 6.08329
390 6.81613
395 7.53545
400 8.50706
405 10.0106
410 11.6149
415 14.2062
420 17.6086
425 23.6033
430 33.9516
435 58.8896
440 2344.56
445 9999.9
450 9999.9
455 7400.44
460 920.769
465 153.539
470 48.6629
475 28.1607
480 20.8727
485 15.477
490 12.8824
495 11.6365
500 11.0792
505 10.3472
510 9.59831
515 9.81565
520 9.08621
525 8.34597
530 7.57612
535 6.55643
540 5.6297
545 5.13119
550 4.58945
555 4.43372
560 4.13411
565 3.91579
570 3.67396
575 3.31619
580 3.26519
585 3.12801
590 2.93008
595 2.90738
600 2.69085
Ex : 458
200 1.68114
205 1.61556
210 1.51004
215 1.69609
220 1.71734
225 1.76871
230 1.89646
235 1.70734
240 1.64649
245 1.76463
250 1.56633
255 1.79518
260 1.84371
265 1.80671
270 1.98064
275 1.94771
280 2.04016
285 2.01708
290 2.11153
295 2.27145
300 2.47807
305 2.52649
310 2.71832
315 2.60379
320 2.72236
325 2.87696
330 3.10211
335 3.10057
340 3.07293
345 3.30823
350 3.56684
355 3.62465
360 4.22448
365 4.47743
370 4.79003
375 5.20611
380 5.44666
385 6.04108
390 6.54484
395 7.30482
400 8.03873
405 8.89615
410 10.3661
415 12.299
420 14.9425
425 19.0311
430 24.785
435 36.5122
440 62.4829
445 2635.23
450 9999.9
455 9999.9
460 8022.46
465 1000.1
470 163.697
475 48.9626
480 29.3492
485 20.824
490 15.7768
495 12.9091
500 11.5549
505 10.9217
510 10.4025
515 9.60833
520 9.72365
525 9.05668
530 8.18129
535 7.60241
540 6.75998
545 5.91583
550 5.09491
555 4.64634
560 4.51164
565 4.18108
570 3.88774
575 3.78101
580 3.42422
585 3.06509
590 3.07552
595 2.97012
600 2.83137
Ex : 463
200 1.72282
205 1.7212
210 1.52859
215 1.6733
220 1.70462
225 1.85348
230 1.81524
235 1.74158
240 1.68591
245 1.88731
250 1.67748
255 1.85541
260 1.83133
265 1.9676
270 1.9415
275 1.98305
280 2.14889
285 2.11108
290 2.18471
295 2.43647
300 2.46094
305 2.66398
310 2.61289
315 2.79193
320 2.89787
325 2.90666
330 2.88419
335 3.04564
340 3.25162
345 3.5065
350 3.57811
355 3.70461
360 3.97812
365 4.24883
370 4.52295
375 4.87132
380 5.15417
385 5.756
390 6.32822
395 6.83189
400 7.42892
405 8.0777
410 8.91908
415 10.5853
420 12.302
425 14.1584
430 18.6066
435 24.9024
440 37.0796
445 64.8468
450 2628.97
455 9999.9
460 9999.9
465 7977.84
470 992.704
475 158.478
480 48.1254
485 28.3287
490 21.0248
495 15.3258
500 12.6491
505 11.1393
510 10.8227
515 10.1632
520 9.26773
525 9.19157
530 9.08673
535 8.28417
540 7.67049
545 6.76961
550 6.14538
555 5.1164
560 4.70633
565 4.60434
570 4.05061
575 3.90843
580 3.68032
585 3.38135
590 3.25546
595 2.92567
600 3.26923
Ex : 468
200 1.60639
205 1.81892
210 1.78136
215 1.77107
220 1.77459
225 1.9484
230 1.95203
235 1.74881
240 1.84239
245 1.8016
250 1.80914
255 2.07298
260 1.94272
265 1.97387
270 1.95643
275 2.02344
280 2.09879
285 2.03056
290 2.14267
295 2.28509
300 2.40722
305 2.45655
310 2.567
315 2.7625
320 2.93557
325 2.94972
330 2.78372
335 2.95568
340 3.36591
345 3.32497
350 3.55494
355 3.49616
360 3.99111
365 4.21302
370 4.39207
375 4.81035
380 5.2065
385 5.37857
390 5.97666
395 6.43085
400 6.81388
405 7.42899
410 8.36087
415 9.21618
420 10.5351
425 11.955
430 14.2614
435 18.9341
440 24.4862
445 37.5486
450 64.4328
455 2846.59
460 9999.9
465 9999.9
470 7784.22
475 961.293
480 153.314
485 46.0334
490 27.9476
495 19.9496
500 14.5419
505 12.0327
510 10.9346
515 10.7179
520 9.93367
525 9.11207
530 8.82091
535 8.51642
540 7.84804
545 7.2406
550 6.56037
555 6.16455
560 5.10773
565 4.63742
570 4.31893
575 3.91493
580 3.81723
585 3.54709
590 3.24668
595 3.12314
600 2.20693
Ex : 473
200 1.72604
205 1.66897
210 1.80846
215 1.89251
220 1.73968
225 1.86402
230 2.29209
235 2.14692
240 1.95595
245 1.91011
250 1.93056
255 1.95061
260 1.98716
265 2.01627
270 2.00697
275 2.10401
280 2.09948
285 2.11463
290 2.16203
295 2.2927
300 2.47622
305 2.61615
310 2.67948
315 2.79456
320 2.92257
325 2.94525
330 3.12751
335 2.96676
340 3.16434
345 3.41182
350 3.58006
355 3.64581
360 3.83928
365 4.1051
370 4.35718
375 4.6678
380 5.00005
385 5.36367
390 5.63907
395 6.21495
400 6.57269
405 7.03014
410 7.83794
415 8.44335
420 9.63904
425 10.7463
430 12.4505
435 15.105
440 19.1998
445 26.1712
450 39.1281
455 67.6866
460 3086.99
465 9999.9
470 9999.9
475 7749.64
480 958.374
485 151.97
490 46.7723
495 27.6669
500 19.932
505 14.611
510 12.3513
515 11.4185
520 10.8656
525 10.3541
530 9.427
535 8.66523
540 8.29454
545 8.09042
550 7.12944
555 6.54888
560 6.06937
565 5.2599
570 4.68631
575 4.38909
580 4.0056
585 3.83411
590 3.60225
595 3.33098
600 4.15575
Ex : 478
200 1.90868
205 1.86235
210 1.76326
215 2.03466
220 1.83648
225 1.93977
230 2.34014
235 2.84975
240 2.12557
245 2.00038
250 1.94212
255 2.09082
260 2.06441
265 2.11124
270 2.04727
275 2.14227
280 2.22079
285 2.31215
290 2.22213
295 2.31165
300 2.42421
305 2.55648
310 2.73119
315 2.82404
320 2.88648
325 3.11722
330 2.94343
335 3.28037
340 3.27792
345 3.45525
350 3.76277
355 3.75839
360 4.05092
365 4.15473
370 4.4158
375 4.45757
380 5.20326
385 5.56891
390 5.95944
395 6.23084
400 6.92376
405 7.02441
410 7.78673
415 8.70171
420 9.46316
425 10.3722
430 11.5434
435 13.7127
440 16.5482
445 22.1177
450 30.0739
455 45.5628
460 79.8431
465 3480.35
470 9999.9
475 9999.9
480 8543.5
485 1055.24
490 168.836
495 49.7189
500 29.7811
505 21.3101
510 16.0575
515 13.433
520 12.0481
525 11.5277
530 10.6032
535 9.70475
540 8.79357
545 8.63479
550 8.28658
555 7.49467
560 6.54942
565 6.1654
570 5.58143
575 4.67867
580 4.26835
585 4.15979
590 3.75501
595 3.64763
600 2.55016
Ex : 483
200 1.95001
205 1.82721
210 1.90084
215 1.83625
220 1.82042
225 1.89448
230 2.03188
235 3.11523
240 2.68423
245 2.08042
250 2.11779
255 2.08533
260 2.16203
265 2.03552
270 2.15427
275 2.18615
280 2.18151
285 2.39889
290 2.27802
295 2.42406
300 2.61217
305 2.53872
310 2.4998
315 2.62691
320 2.91891
325 2.92827
330 3.11008
335 3.34602
340 3.60075
345 3.19729
350 3.55996
355 3.7748
360 3.89218
365 4.13009
370 4.56135
375 4.65262
380 5.03137
385 5.3385
390 5.75368
395 6.05765
400 6.48933
405 6.99313
410 7.4383
415 8.15369
420 8.89
425 9.62609
430 10.3575
435 12.0911
440 13.8408
445 17.4851
450 22.5509
455 31.1035
460 47.4448
465 83.3318
470 2832.56
475 9999.9
480 9999.9
485 8949
490 1102.71
495 173.487
500 50.156
505 29.9098
510 21.7329
515 15.7411
520 13.2184
525 12.1874
530 11.1817
535 10.6872
540 9.75498
545 8.63063
550 7.92532
555 8.00196
560 7.07123
565 6.59001
570 5.82668
575 5.42816
580 4.75168
585 4.02625
590 3.92465
595 3.6024
600 3.92935
Ex : 488
200 1.83942
205 1.92139
210 1.76422
215 1.95785
220 2.09679
225 2.02818
230 1.89218
235 2.55545
240 3.51899
245 2.25173
250 2.05647
255 2.05252
260 1.90521
265 2.09352
270 2.07827
275 2.27474
280 2.39292
285 2.25361
290 2.38336
295 2.41709
300 2.46215
305 2.4176
310 2.49569
315 2.76218
320 2.62615
325 3.05974
330 3.27468
335 3.33002
340 3.40879
345 3.46114
350 3.51475
355 3.6229
360 3.9794
365 4.04803
370 4.13308
375 4.58823
380 4.79474
385 5.40509
390 5.5022
395 5.92187
400 6.42318
405 6.75633
410 7.04953
415 8.02782
420 8.48777
425 9.23321
430 10.1521
435 11.5509
440 12.6986
445 15.3476
450 18.6535
455 24.7273
460 35.558
465 54.3686
470 86.7175
475 3389.58
480 9999.9
485 9999.9
490 8985.16
495 1106.92
500 173.837
505 51.1457
510 30.4299
515 22.0656
520 16.2201
525 13.2342
530 12.1412
535 11.6084
540 10.8351
545 9.95095
550 9.075
555 8.21686
560 8.10849
565 7.28348
570 6.44473
575 6.04445
580 5.12413
585 4.77181
590 4.39767
595 3.73791
600 3.45194
Ex : 493
200 1.92875
205 1.94183
210 1.90567
215 1.86569
220 1.92191
225 1.80554
230 1.9769
235 2.04115
240 4.02296
245 3.05832
250 2.18984
255 2.08274
260 2.12479
265 2.1979
270 2.25219
275 2.16665
280 2.18247
285 2.3483
290 2.40867
295 2.27952
300 2.40194
305 2.42277
310 2.58699
315 2.72506
320 2.8683
325 2.90975
330 3.09016
335 3.09628
340 3.21666
345 3.71173
350 3.61016
355 3.58693
360 3.88188
365 4.0502
370 4.2772
375 4.65472
380 4.73121
385 5.00888
390 5.41782
395 5.636
400 6.07947
405 6.64724
410 6.95756
415 7.48954
420 7.67636
425 8.60465
430 9.20149
435 10.5283
440 11.8786
445 13.2926
450 15.6819
455 19.7076
460 26.0475
465 37.0314
470 52.1084
475 81.5653
480 3338.99
485 9999.9
490 9999.9
495 9014.88
500 1108.81
505 173.1
510 50.607
515 30.5445
520 21.5315
525 16.2016
530 13.5103
535 12.3553
540 11.9269
545 11.088
550 10.2763
555 9.00047
560 8.39215
565 7.60616
570 7.0286
575 6.13496
580 5.65527
585 5.34575
590 4.7533
595 4.38691
600 3.89325
Ex : 498
200 1.81992
205 1.7964
210 1.8553
215 1.99074
220 1.91455
225 1.85993
230 1.88825
235 2.04757
240 2.94802
245 4.60723
250 2.55083
255 2.20448
260 2.22504
265 2.1925
270 2.12288
275 2.22479
280 2.25502
285 2.21635
290 2.47426
295 2.30401
300 2.51274
305 2.58467
310 2.71295
315 2.75118
320 2.83946
325 2.95909
330 2.91395
335 3.27669
340 3.45414
345 3.61628
350 3.81476
355 3.68126
360 3.90209
365 4.06119
370 4.40856
375 4.50052
380 4.7595
385 4.94457
390 5.56299
395 5.67102
400 5.91733
405 6.36951
410 6.86718
415 7.33109
420 7.86185
425 8.33451
430 8.93965
435 9.77867
440 10.8617
445 12.4231
450 14.09
455 16.5815
460 21.2312
465 28.7579
470 36.7688
475 52.2183
480 85.1313
485 3936.34
490 9999.9
495 9999.9
500 9248.41
505 1137.29
510 177.486
515 51.8088
520 31.4995
525 22.4865
530 16.5203
535 13.662
540 12.692
545 11.6628
550 11.1443
555 10.2229
560 8.93956
565 8.36454
570 7.28022
575 7.01396
580 6.22962
585 5.52502
590 5.00505
595 4.62947
600 5.50164
Ex : 503
200 1.74773
205 1.881
210 1.85479
215 1.79705
220 1.99601
225 1.8299
230 1.96929
235 1.94007
240 1.93445
245 4.50763
250 3.77431
255 2.32958
260 2.11587
265 2.05312
270 2.25478
275 2.12159
280 2.26402
285 2.1758
290 2.35993
295 2.68614
300 2.48779
305 2.40288
310 2.4984
315 2.60012
320 2.61254
325 2.92967
330 2.89832
335 2.95841
340 3.31238
345 3.39542
350 3.8429
355 3.68228
360 3.99011
365 3.77648
370 3.98871
375 4.18463
380 4.56675
385 4.6681
390 5.14766
395 5.34766
400 5.86898
405 6.15257
410 6.5229
415 7.09663
420 7.75975
425 8.17686
430 8.70232
435 9.02171
440 10.2437
445 11.35
450 12.3778
455 15.1882
460 18.147
465 23.3311
470 29.0252
475 36.3128
480 52.3725
485 87.275
490 3603.93
495 9999.9
500 9999.9
505 9632.69
510 1183.35
515 182.432
520 52.8743
525 31.9433
530 22.7446
535 16.7857
540 13.4042
545 12.5466
550 11.5649
555 10.9452
560 10.1083
565 9.43769
570 7.92666
575 7.28619
580 6.48144
585 5.97929
590 5.34716
595 4.99483
600 4.85231
Ex : 508
200 1.84073
205 1.84561
210 1.86548
215 1.9183
220 1.87056
225 1.93291
230 2.15205
235 2.02816
240 1.97967
245 3.25423
250 5.94074
255 2.92869
260 2.20918
265 2.12927
270 2.15097
275 2.30386
280 1.98648
285 2.19478
290 2.23186
295 2.39027
300 2.35014
305 2.56999
310 2.64061
315 2.53718
320 2.69834
325 2.874
330 2.64004
335 2.80334
340 3.07775
345 3.20969
350 3.50954
355 3.81061
360 3.88329
365 3.97054
370 3.89909
375 4.04399
380 4.3553
385 4.61629
390 4.94555
395 5.27198
400 5.63586
405 5.70963
410 6.54515
415 6.94409
420 7.23204
425 7.7047
430 8.32434
435 8.78864
440 9.42161
445 10.4798
450 11.5998
455 13.2442
460 15.9409
465 19.0742
470 22.9974
475 28.0467
480 37.4138
485 53.5686
490 89.7696
495 3878.22
500 9999.9
505 9999.9
510 9999.9
515 1226.14
520 188.074
525 53.6298
530 31.878
535 22.7959
540 16.4284
545 13.2187
550 12.3224
555 12.0538
560 11.3045
565 10.3949
570 8.79122
575 8.12638
580 7.10697
585 5.90058
590 5.72136
595 5.08785
600 5.30665
Ex : 513
200 1.94809
205 1.91967
210 1.94253
215 1.92468
220 2.09245
225 2.03006
230 1.91084
235 1.87911
240 1.90855
245 2.43409
250 9.77216
255 8.30523
260 2.89968
265 2.22559
270 2.24855
275 2.15339
280 2.10814
285 2.28543
290 2.48954
295 2.39909
300 2.3909
305 2.47123
310 2.58881
315 2.583
320 2.74413
325 2.69526
330 2.78269
335 2.9494
340 3.0069
345 3.1619
350 3.4002
355 3.53313
360 3.53368
365 3.92566
370 3.92052
375 3.96407
380 4.48384
385 4.5087
390 4.69024
395 5.16307
400 5.39649
405 5.8917
410 6.30263
415 6.84514
420 6.77206
425 7.59267
430 7.88122
435 8.24527
440 8.56214
445 10.0443
450 10.8632
455 12.1517
460 13.9828
465 17.1869
470 18.7732
475 21.7866
480 28.3161
485 37.0241
490 54.5249
495 87.3387
500 3516.71
505 9999.9
510 9999.9
515 9999.9
520 1228.29
525 188.898
530 54.6124
535 32.2646
540 23.2152
545 17.1432
550 13.7673
555 12.4404
560 11.7231
565 11.1417
570 10.2899
575 8.70028
580 7.86422
585 7.01746
590 5.96782
595 5.66149
600 5.1488
Ex : 518
200 1.93641
205 1.93492
210 1.98891
215 1.89645
220 1.97675
225 1.8552
230 1.93441
235 1.8908
240 2.04839
245 2.05142
250 8.17492
255 21.7119
260 6.50803
265 2.60368
270 2.32113
275 2.35753
280 2.13231
285 2.34806
290 2.21391
295 2.22976
300 2.34967
305 2.52246
310 2.50139
315 2.69045
320 2.5402
325 2.60538
330 2.95675
335 2.86333
340 3.14326
345 3.06682
350 3.15006
355 3.32252
360 3.63026
365 3.98414
370 3.96001
375 4.08852
380 4.12016
385 4.33572
390 4.79317
395 4.77798
400 5.29611
405 5.48114
410 5.81635
415 6.4375
420 6.72164
425 7.20159
430 7.5394
435 7.94817
440 8.34829
445 9.59522
450 10.2625
455 11.2408
460 13.3005
465 15.0086
470 16.6351
475 19.1264
480 22.2395
485 28.765
490 38.3404
495 53.2046
500 86.5124
505 3558.28
510 9999.9
515 9999.9
520 9999.9
525 1229.47
530 188.939
535 54.0183
540 31.5671
545 22.8345
550 16.758
555 13.5753
560 12.1779
565 11.6748
570 10.8445
575 9.87006
580 8.76062
585 7.49384
590 6.42635
595 5.87774
600 5.74037
Ex : 523
200 1.95605
205 1.83753
210 1.86759
215 1.81496
220 1.88242
225 2.00362
230 2.1028
235 2.03621
240 1.92851
245 2.11852
250 3.02151
255 29.605
260 22.0306
265 4.60453
270 2.46619
275 2.09221
280 2.25249
285 2.30155
290 2.40062
295 2.43577
300 2.60385
305 2.58342
310 2.57103
315 2.53748
320 2.60177
325 2.79942
330 2.98445
335 2.8732
340 2.87609
345 3.11891
350 3.15387
355 3.24885
360 3.66012
365 3.96748
370 3.98877
375 3.9764
380 4.07573
385 4.2578
390 4.47868
395 4.84555
400 5.03648
405 5.33385
410 5.57462
415 6.22664
420 6.45586
425 6.81984
430 6.98587
435 7.60518
440 8.30679
445 9.15051
450 9.66968
455 10.8928
460 11.8028
465 13.6615
470 14.8085
475 15.6602
480 18.0638
485 22.7216
490 29.2566
495 37.1942
500 52.9297
505 85.8247
510 3254.64
515 9999.9
520 9999.9
525 9999.9
530 1228.84
535 188.565
540 53.8585
545 31.1437
550 22.9001
555 16.0104
560 13.6285
565 12.0077
570 11.7716
575 10.49
580 9.53823
585 8.28394
590 7.42139
595 6.3111
600 5.20772
Ex : 528
200 1.79748
205 2.01901
210 1.93383
215 1.68364
220 1.90387
225 1.65185
230 1.77346
235 1.85925
240 1.77295
245 1.8231
250 2.04102
255 16.7355
260 50.1225
265 12.5465
270 3.36755
275 2.56546
280 2.37928
285 2.47041
290 2.40111
295 2.39631
300 2.52847
305 2.62423
310 2.60142
315 2.68637
320 2.52905
325 2.68068
330 2.54489
335 2.81885
340 3.00402
345 3.00702
350 2.98091
355 3.15779
360 3.24114
365 3.56736
370 4.01864
375 4.27998
380 4.36461
385 4.48552
390 4.35312
395 4.69113
400 5.27916
405 5.42816
410 5.53427
415 6.02319
420 6.31432
425 6.45935
430 7.12837
435 7.11612
440 7.83987
445 8.34614
450 8.87522
455 9.61781
460 11.3705
465 12.2995
470 13.5276
475 14.1559
480 15.9378
485 18.4249
490 22.0444
495 28.1666
500 36.8394
505 51.528
510 84.1531
515 3035.4
520 9999.9
525 9999.9
530 9999.9
535 1231.44
540 188.839
545 53.8919
550 31.1765
555 22.6976
560 16.475
565 13.4879
570 11.9098
575 11.0836
580 9.90254
585 9.16161
590 8.04391
595 7.19592
600 5.02037
Ex : 533
200 1.86454
205 1.94724
210 1.88637
215 1.86401
220 1.86228
225 1.90821
230 1.90677
235 1.94667
240 2.01636
245 1.86502
250 2.0005
255 4.17398
260 54.9015
265 42.3335
270 7.1423
275 2.67777
280 2.33455
285 2.5568
290 2.67513
295 2.41229
300 2.54918
305 2.61061
310 2.58789
315 2.58397
320 2.57784
325 2.90421
330 2.98409
335 2.90004
340 2.8663
345 3.02311
350 3.06236
355 3.19399
360 3.22891
365 3.62975
370 3.85514
375 3.89351
380 3.94056
385 4.41244
390 4.524
395 4.6082
400 4.56073
405 5.08837
410 5.57398
415 5.4864
420 5.87563
425 6.40236
430 6.28385
435 7.10434
440 7.40224
445 8.13873
450 8.70463
455 9.15247
460 10.1047
465 11.8106
470 12.1286
475 12.9823
480 14.4562
485 15.5949
490 17.8221
495 22.1713
500 27.8292
505 36.6438
510 50.3189
515 80.8372
520 3079.51
525 9999.9
530 9999.9
535 9999.9
540 1229.58
545 187.737
550 54.1762
555 30.7737
560 22.0601
565 15.913
570 13.1129
575 11.0413
580 10.6409
585 9.66148
590 9.22877
595 8.05597
600 7.27682
Ex : 538
200 1.83006
205 1.9266
210 1.8869
215 1.89599
220 1.89679
225 1.93229
230 1.98746
235 1.99178
240 2.02074
245 1.91066
250 1.97469
255 2.07749
260 26.7253
265 92.7281
270 23.8995
275 4.6273
280 2.7126
285 2.56934
290 2.55206
295 2.48006
300 2.59119
305 2.53752
310 2.53033
315 2.63361
320 2.53266
325 2.65007
330 2.77961
335 2.67695
340 2.87777
345 3.02796
350 3.05509
355 3.05036
360 2.94162
365 3.303
370 3.26326
375 3.65004
380 3.91158
385 4.16631
390 4.36915
395 4.4999
400 4.57327
405 4.59545
410 5.29203
415 5.55156
420 5.85822
425 5.88453
430 6.26883
435 6.6292
440 7.17036
445 7.67598
450 8.5292
455 8.91327
460 9.6726
465 10.8467
470 11.5055
475 12.1099
480 12.7042
485 14.1096
490 15.9614
495 18.1846
500 21.474
505 27.5577
510 35.7398
515 48.6225
520 79.1832
525 2653.49
530 9999.9
535 9999.9
540 9999.9
545 1237.03
550 188.531
555 53.1161
560 30.2872
565 22.2024
570 15.65
575 12.5552
580 10.7662
585 10.0324
590 9.59251
595 9.02501
600 10.2742
Ex : 543
200 1.87106
205 1.80138
210 1.93018
215 1.73852
220 1.80137
225 1.77931
230 1.91419
235 1.73909
240 1.7669
245 2.08385
250 2.01298
255 1.98795
260 5.34499
265 92.5364
270 76.9568
275 11.5887
280 3.6294
285 2.70385
290 2.67906
295 2.7121
300 2.7833
305 2.28042
310 2.59756
315 2.78037
320 2.5646
325 2.74588
330 2.60309
335 2.78192
340 2.96533
345 3.0064
350 3.07994
355 3.22818
360 3.10864
365 3.15113
370 3.27652
375 3.65146
380 3.81569
385 4.04822
390 4.14369
395 4.21362
400 4.59394
405 4.69679
410 4.73378
415 5.21409
420 5.40684
425 5.4712
430 5.85402
435 6.15622
440 6.33754
445 7.07186
450 7.73939
455 8.66342
460 9.02928
465 10.4273
470 10.7374
475 10.5546
480 11.8024
485 12.9145
490 13.9454
495 15.4331
500 17.3304
505 21.0701
510 26.5781
515 34.9162
520 48.1251
525 76.1048
530 2442.62
535 9999.9
540 9999.9
545 9999.9
550 1244.73
555 188.765
560 53.0184
565 29.9693
570 21.0421
575 14.76
580 11.4393
585 10.8057
590 9.73647
595 9.0445
600 9.30685
Ex : 548
200 1.78566
205 1.87516
210 1.94454
215 1.94111
220 1.82981
225 2.04956
230 2.04755
235 1.98188
240 1.96967
245 2.01964
250 2.19071
255 1.74917
260 2.15024
265 42.7497
270 145.032
275 36.0719
280 6.59111
285 3.03325
290 2.50471
295 2.58211
300 2.6755
305 2.41576
310 2.39962
315 2.64558
320 2.76699
325 2.91572
330 2.7566
335 2.8554
340 3.02607
345 3.00854
350 3.08958
355 3.21234
360 3.10601
365 3.47856
370 3.47322
375 3.48731
380 3.52097
385 3.92473
390 4.05032
395 4.26193
400 4.57886
405 4.3874
410 4.6175
415 5.02358
420 5.03633
425 5.47213
430 5.71313
435 6.02384
440 6.47295
445 6.8661
450 7.19235
455 8.12979
460 9.17336
465 10.018
470 9.84583
475 10.1762
480 10.5414
485 11.536
490 12.6508
495 13.8014
500 15.3572
505 17.5319
510 21.2449
515 25.832
520 33.5586
525 47.8066
530 75.2237
535 2712.01
540 9999.9
545 9999.9
550 9999.9
555 1235.91
560 186.284
565 50.993
570 27.8872
575 19.769
580 13.6712
585 10.7647
590 9.81517
595 9.74769
600 6.97484
Ex : 553
200 1.93947
205 1.75453
210 1.89516
215 2.14094
220 1.98389
225 1.89856
230 1.88293
235 1.98109
240 1.98769
245 1.91828
250 2.02528
255 2.11716
260 2.3152
265 6.89829
270 134.451
275 113.774
280 16.6658
285 4.15204
290 2.67951
295 2.46262
300 2.57609
305 2.62184
310 2.60894
315 2.63656
320 2.56884
325 2.74766
330 2.5926
335 2.70941
340 3.13648
345 3.06547
350 2.97084
355 3.09511
360 2.93944
365 3.28668
370 3.30796
375 3.46559
380 3.52157
385 3.47518
390 3.84332
395 4.15033
400 4.33959
405 4.34467
410 4.57677
415 4.95221
420 4.98774
425 5.3078
430 5.68694
435 5.90254
440 5.8028
445 6.4829
450 7.44839
455 7.55477
460 8.08499
465 9.43274
470 9.33549
475 9.52498
480 9.99918
485 11.2148
490 11.6477
495 12.5309
500 13.51
505 14.9226
510 17.2454
515 20.7387
520 26.1965
525 33.2738
530 46.8028
535 73.7
540 2355.2
545 9999.9
550 9999.9
555 9999.9
560 1240.98
565 185.992
570 50.2578
575 27.1766
580 19.0264
585 12.9298
590 10.1751
595 9.41327
600 10.9028
Ex : 558
200 1.92417
205 1.95417
210 1.93877
215 1.91089
220 2.11104
225 1.94622
230 1.88085
235 1.99312
240 1.77829
245 1.89738
250 1.96498
255 1.82837
260 2.06035
265 2.36604
270 55.455
275 209.64
280 53.1717
285 8.51541
290 3.18359
295 2.55285
300 2.68217
305 2.51078
310 2.41055
315 2.77828
320 2.80088
325 2.867
330 2.77464
335 2.95834
340 2.70608
345 2.89967
350 3.1734
355 2.96296
360 3.16556
365 3.04468
370 3.16662
375 3.28599
380 3.34275
385 3.52011
390 3.64399
395 4.03233
400 4.1079
405 4.23928
410 4.54165
415 4.79614
420 4.79246
425 4.87446
430 5.73784
435 5.85682
440 5.70051
445 6.30723
450 6.88996
455 7.22254
460 7.77391
465 9.05566
470 9.05542
475 9.15905
480 9.63715
485 9.73961
490 10.7734
495 11.3079
500 12.2691
505 13.3892
510 15.1574
515 17.2564
520 20.3609
525 25.7556
530 33.4736
535 47.3995
540 70.839
545 2204.47
550 9999.9
555 9999.9
560 9999.9
565 1243.1
570 184.208
575 48.5908
580 25.6846
585 17.6675
590 12.5964
595 9.77189
600 9.30939
Ex : 563
200 1.95813
205 2.02302
210 1.86921
215 1.73763
220 1.94772
225 1.95051
230 1.89121
235 1.94007
240 2.00628
245 1.93266
250 1.90995
255 2.07543
260 1.99071
265 2.18731
270 8.78327
275 185.744
280 156.221
285 22.2385
290 5.17819
295 2.91738
300 2.82308
305 2.77004
310 2.72701
315 2.4092
320 2.49208
325 2.54179
330 2.80442
335 2.91246
340 3.00957
345 2.97992
350 3.07954
355 3.07642
360 3.21442
365 3.40801
370 3.34864
375 3.46575
380 3.45467
385 3.82092
390 3.65426
395 3.82799
400 4.19255
405 3.99026
410 4.16746
415 4.3551
420 4.73345
425 4.58559
430 4.86014
435 5.2845
440 5.90278
445 6.0813
450 6.75745
455 7.16265
460 7.88367
465 8.69711
470 8.59537
475 8.66814
480 9.40909
485 9.46872
490 10.2677
495 10.3389
500 11.1149
505 11.6702
510 12.8106
515 14.5508
520 17.2428
525 19.903
530 25.5915
535 33.0644
540 45.7014
545 70.7928
550 2157.81
555 9999.9
560 9999.9
565 9999.9
570 1238.89
575 181.166
580 46.0103
585 23.7215
590 16.3954
595 12.0122
600 12.6592
Ex : 568
200 1.74013
205 1.95728
210 1.73661
215 1.72037
220 2.07033
225 1.82682
230 1.89479
235 1.81873
240 1.95791
245 1.80592
250 1.93442
255 1.87964
260 2.00009
265 2.13776
270 2.51948
275 68.7967
280 269.707
285 74.2072
290 10.8148
295 3.37182
300 2.67646
305 2.34422
310 2.9167
315 2.53231
320 2.63604
325 2.9176
330 2.94254
335 2.71548
340 2.85975
345 2.96496
350 3.06414
355 3.0433
360 3.17968
365 3.11082
370 3.14365
375 3.06931
380 3.58133
385 3.47574
390 3.72911
395 3.50149
400 3.714
405 4.07899
410 4.10065
415 4.39362
420 4.56099
425 4.90893
430 4.7715
435 5.34673
440 5.71526
445 6.05268
450 6.42371
455 6.55661
460 7.21326
465 7.91844
470 8.16021
475 8.02561
480 8.69836
485 8.83483
490 9.13488
495 9.53676
500 10.3595
505 11.1182
510 12.1808
515 12.6901
520 14.0265
525 16.7082
530 19.5718
535 25.0127
540 32.3582
545 44.9965
550 68.9863
555 1678.26
560 9999.9
565 9999.9
570 9999.9
575 1249.8
580 179.591
585 43.866
590 22.5664
595 16.1073
600 13.0916
Ex : 573
200 1.74045
205 1.94184
210 1.69325
215 1.84546
220 1.87978
225 1.93638
230 1.82792
235 1.82795
240 1.83654
245 1.7322
250 1.85681
255 1.63706
260 1.95313
265 2.12318
270 2.13659
275 8.2537
280 222.241
285 209.108
290 29.3207
295 5.85219
300 2.7302
305 2.61768
310 2.38308
315 2.46793
320 2.68288
325 2.53125
330 2.45529
335 2.60868
340 2.84207
345 2.80298
350 2.92288
355 2.81423
360 2.80039
365 2.7748
370 3.03914
375 3.14352
380 3.29915
385 3.24445
390 3.42299
395 3.40827
400 3.61489
405 3.60297
410 4.0737
415 4.10951
420 4.26941
425 4.59336
430 4.63122
435 4.93679
440 5.04334
445 5.45034
450 5.93256
455 6.29821
460 6.82056
465 8.02245
470 7.594
475 7.70135
480 7.77093
485 8.285
490 9.38578
495 9.18131
500 9.13632
505 10.2398
510 10.2635
515 11.3101
520 12.487
525 13.5176
530 15.4958
535 19.0179
540 24.0114
545 31.1292
550 43.4955
555 63.0833
560 1422.67
565 9999.9
570 9999.9
575 9999.9
580 1245.48
585 175.245
590 40.7645
595 20.8453
600 14.889
Ex : 578
200 1.77579
205 1.65008
210 1.642
215 1.69919
220 1.78256
225 1.53911
230 1.41864
235 1.5608
240 1.73005
245 1.91834
250 1.73837
255 1.77163
260 1.87658
265 1.79031
270 1.98391
275 2.38977
280 80.3602
285 326.986
290 91.4501
295 12.8967
300 3.55863
305 2.53225
310 2.42461
315 2.49164
320 2.342
325 2.52952
330 2.55456
335 2.48242
340 2.661
345 2.602
350 2.6787
355 2.68897
360 2.62413
365 2.75311
370 2.70999
375 2.80416
380 3.17657
385 3.17197
390 3.13317
395 3.51965
400 3.75658
405 3.59381
410 3.60754
415 3.95418
420 3.76514
425 4.15452
430 4.36013
435 4.43208
440 4.78063
445 5.13627
450 5.26993
455 5.93435
460 6.32813
465 6.88634
470 7.12123
475 7.19507
480 7.40126
485 8.05384
490 8.11551
495 8.05842
500 8.72134
505 8.92044
510 9.7152
515 10.1881
520 11.1451
525 11.1148
530 13.0005
535 15.1931
540 18.4481
545 22.9475
550 29.8103
555 41.5521
560 61.063
565 1257.73
570 9999.9
575 9999.9
580 9999.9
585 1224.39
590 168.576
595 38.0639
600 16.6075
Ex : 583
200 1.55861
205 1.47663
210 1.53909
215 1.6472
220 1.70378
225 1.70219
230 1.69168
235 1.61492
240 1.66142
245 1.59678
250 1.60786
255 1.67039
260 1.6833
265 1.67125
270 1.69674
275 2.00222
280 10.2249
285 256.512
290 246.027
295 34.3716
300 5.90618
305 2.61499
310 2.24989
315 2.54047
320 2.39903
325 2.25818
330 2.42178
335 2.36778
340 2.53269
345 2.33781
350 2.12116
355 2.64171
360 2.75284
365 2.78942
370 2.97529
375 2.61895
380 2.73356
385 3.2122
390 3.15503
395 3.11736
400 3.16944
405 3.06254
410 3.24856
415 3.27321
420 3.63303
425 3.90668
430 3.81741
435 4.14933
440 4.57749
445 4.46438
450 4.71076
455 5.13108
460 5.9621
465 6.93252
470 6.72984
475 6.59578
480 6.65238
485 7.1072
490 7.61234
495 7.5704
500 7.65075
505 7.97052
510 8.31567
515 9.15413
520 9.31701
525 10.6051
530 11.2708
535 12.5252
540 13.8276
545 17.5935
550 21.9587
555 28.4756
560 38.3759
565 56.8134
570 1117.51
575 9999.9
580 9999.9
585 9999.9
590 1216.75
595 163.777
600 42.2385
Ex : 588
200 1.50704
205 1.52874
210 1.42617
215 1.43907
220 1.61916
225 1.46837
230 1.42991
235 1.44341
240 1.32837
245 1.49369
250 1.46815
255 1.55555
260 1.53188
265 1.59371
270 1.64191
275 2.05037
280 2.45682
285 88.5098
290 390.665
295 115.723
300 15.3596
305 3.94883
310 2.47506
315 2.28519
320 2.25532
325 2.44629
330 2.20057
335 2.25193
340 2.31545
345 2.31421
350 2.31749
355 2.53074
360 2.56698
365 2.57921
370 2.44246
375 2.52148
380 2.5887
385 2.83169
390 3.19615
395 3.05165
400 2.99472
405 3.26766
410 3.13489
415 3.67286
420 3.45402
425 3.5975
430 3.64186
435 3.60872
440 3.89174
445 4.34753
450 4.60839
455 4.95574
460 5.30757
465 6.39889
470 6.11826
475 6.00821
480 6.5125
485 6.50158
490 6.50266
495 6.83319
500 7.28872
505 7.78291
510 7.97668
515 8.16054
520 9.03132
525 9.11923
530 9.90599
535 10.5843
540 12.0834
545 14.0161
550 16.3006
555 21.2149
560 27.4255
565 35.2743
570 52.2635
575 980.511
580 9999.9
585 9999.9
590 9735.26
595 1177.37
600 160.947
Ex : 593
200 1.34492
205 1.5254
210 1.44096
215 1.45498
220 1.37903
225 1.44403
230 1.27601
235 1.41603
240 1.44651
245 1.30898
250 1.42162
255 1.45282
260 1.38957
265 1.44628
270 1.50688
275 1.65207
280 1.83914
285 9.97912
290 296.184
295 303.022
300 42.3237
305 6.80995
310 2.68281
315 2.3618
320 2.28148
325 2.12684
330 2.04318
335 2.17571
340 2.20962
345 2.44879
350 2.34766
355 2.24987
360 2.14924
365 2.36582
370 2.64342
375 2.58322
380 2.98577
385 2.71896
390 2.87909
395 2.86772
400 3.01138
405 2.87432
410 3.12209
415 2.88643
420 3.17606
425 3.23872
430 3.64391
435 3.49525
440 3.88989
445 3.69396
450 4.33744
455 4.59058
460 5.11969
465 5.49317
470 6.24738
475 5.98104
480 5.77653
485 5.63123
490 6.4209
495 6.46324
500 6.86066
505 7.09634
510 7.41947
515 7.30087
520 7.56589
525 8.22228
530 8.72898
535 9.94968
540 10.3114
545 11.9384
550 13.8526
555 15.8815
560 20.064
565 25.1877
570 33.9937
575 46.3644
580 873.289
585 9999.9
590 9999.9
595 8645.43
600 1305.64
Ex : 598
200 1.17273
205 1.41262
210 1.34054
215 1.27422
220 1.13344
225 1.17321
230 1.48404
235 1.19626
240 1.28382
245 1.16695
250 1.16967
255 1.39312
260 1.4481
265 1.30273
270 1.21659
275 1.44199
280 1.68615
285 2.13477
290 99.8613
295 450.247
300 139.505
305 18.2557
310 4.27549
315 2.5119
320 2.12629
325 2.18254
330 2.17441
335 2.05156
340 1.93258
345 2.03036
350 2.03189
355 2.12255
360 2.24685
365 2.23045
370 2.18169
375 2.46565
380 2.45222
385 2.46297
390 2.85507
395 2.87753
400 3.0051
405 2.89214
410 3.13029
415 2.97737
420 3.17846
425 3.10643
430 3.01382
435 3.3353
440 3.56526
445 3.80534
450 4.26816
455 4.32926
460 4.6642
465 5.40837
470 5.27162
475 6.00876
480 6.32105
485 6.14349
490 6.08787
495 6.24506
500 6.18154
505 6.62218
510 6.83082
515 6.83513
520 7.4952
525 7.78186
530 8.23238
535 8.71372
540 9.08265
545 9.99796
550 11.1076
555 13.1362
560 15.782
565 19.5471
570 23.944
575 31.3277
580 42.3523
585 849.24
590 9999.9
595 9999.9
600 9999.9
Ex : 603
200 1.21553
205 1.38026
210 1.25462
215 1.19142
220 1.34351
225 1.3208
230 1.20665
235 1.23643
240 0.96064
245 1.21499
250 1.43373
255 1.2448
260 1.17544
265 1.14529
270 1.39895
275 1.5396
280 1.45797
285 1.79183
290 9.75142
295 332.639
300 363.983
305 50.8839
310 8.1679
315 2.70509
320 2.02888
325 2.01662
330 2.19029
335 1.95876
340 2.17294
345 1.91261
350 2.00678
355 2.10157
360 2.22432
365 2.09048
370 2.29623
375 2.52164
380 2.33512
385 2.50441
390 2.67329
395 2.37119
400 2.66676
405 2.663
410 2.97548
415 2.99774
420 2.96192
425 2.96026
430 3.19092
435 3.14524
440 3.37814
445 3.56283
450 4.01805
455 3.87801
460 4.60814
465 4.87012
470 4.93669
475 4.96375
480 5.62751
485 5.94611
490 5.72824
495 5.91349
500 6.4434
505 5.70444
510 6.18522
515 6.42422
520 6.47504
525 6.79271
530 7.86566
535 8.06356
540 8.34433
545 8.78045
550 9.97518
555 10.8917
560 12.1167
565 14.6027
570 18.0383
575 21.0494
580 26.3839
585 37.4565
590 738.544
595 9999.9
600 9999.9
