File format V 1.0
jeu. 12. mai 16:48:25 2016
Operator : 
Comments : 

=============================================
SpectroFluorometer parameters
Mode : 3D measurement
Data : Fluorescence
Phospho. : Ordinary
Spectrum : Fluorescence

Scan speed : 2400 nm/mn
Response : 100 ms
PM Voltage : 700 V
Shutter : On

Lambda Ex. Start : 203
Lambda Ex. End : 603
Lambda Ex. Step : 5
Ex. Slit : 5 nm

Lambda Em. Start : 200
Lambda Em. End : 600
Lambda Em. Step : 5
Em. Slit : 5 nm

Repetition : 1
Decal lambda em : 10
=============================================
DATA
Ex : 203
200 9.78788
205 9.1006
210 15.1716
215 11.6835
220 9.11771
225 8.91613
230 12.8814
235 10.9677
240 7.74871
245 11.0351
250 14.4591
255 8.61854
260 11.47
265 10.803
270 11.8476
275 12.4643
280 15.0444
285 11.2667
290 17.1834
295 17.5607
300 14.785
305 15.749
310 15.9562
315 19.4015
320 17.7629
325 20.1815
330 23.4328
335 23.6859
340 26.1311
345 31.0457
350 31.9013
355 28.4387
360 29.6729
365 33.8252
370 38.097
375 29.8349
380 31.9555
385 33.2944
390 32.011
395 35.1619
400 32.544
405 33.7564
410 32.7789
415 33.1901
420 40.6624
425 34.5391
430 30.7627
435 34.4182
440 40.4251
445 44.4742
450 34.9907
455 37.5792
460 41.7042
465 41.5019
470 44.8802
475 39.0416
480 42.5612
485 30.0804
490 33.0561
495 28.5656
500 34.3483
505 34.0501
510 29.7167
515 27.9689
520 30.7802
525 32.0958
530 31.9207
535 34.2091
540 31.5981
545 31.0069
550 32.5906
555 38.7218
560 37.1703
565 30.6448
570 28.8649
575 33.9492
580 34.3034
585 30.0053
590 24.7625
595 27.8928
600 41.724
Ex : 208
200 12.4521
205 10.1623
210 9.40417
215 12.0874
220 10.0853
225 12.5883
230 11.7578
235 8.21825
240 9.53627
245 11.4225
250 15.0584
255 11.08
260 10.963
265 10.4286
270 11.5611
275 13.4486
280 11.936
285 12.7923
290 15.5106
295 14.5825
300 15.6809
305 19.3172
310 19.3998
315 22.8699
320 24.4135
325 22.3468
330 28.3249
335 27.1255
340 23.825
345 25.196
350 23.9547
355 25.465
360 26.2708
365 27.9879
370 29.2457
375 25.4228
380 28.5027
385 30.7578
390 34.9549
395 31.6201
400 39.7034
405 36.8778
410 36.8285
415 33.7231
420 41.1102
425 36.9088
430 39.7513
435 40.0163
440 33.0683
445 37.7825
450 37.2731
455 40.7294
460 41.1021
465 47.6062
470 41.9003
475 35.8242
480 37.6858
485 36.1968
490 38.784
495 38.1161
500 33.5669
505 34.8815
510 34.6362
515 30.6063
520 31.7913
525 29.7305
530 28.5796
535 28.1053
540 27.0197
545 31.1787
550 31.507
555 41.0449
560 30.7778
565 32.7188
570 39.5882
575 34.089
580 29.5894
585 29.201
590 29.9091
595 24.5573
600 35.8056
Ex : 213
200 10.5509
205 11.7999
210 14.5615
215 8.51036
220 10.593
225 13.3036
230 12.0203
235 9.8167
240 10.1523
245 10.8935
250 10.3448
255 9.08807
260 10.3777
265 11.9553
270 15.8267
275 17.0267
280 15.3984
285 14.9681
290 15.7053
295 18.333
300 20.806
305 18.5242
310 20.677
315 21.534
320 25.9401
325 28.641
330 22.6807
335 23.9317
340 35.0416
345 28.5627
350 27.1724
355 26.8972
360 25.4017
365 28.6119
370 29.7669
375 29.0873
380 35.5476
385 37.3017
390 37.0241
395 36.9514
400 36.9514
405 37.9334
410 34.2643
415 37.4759
420 34.174
425 33.1336
430 35.0587
435 30.836
440 28.9788
445 41.6438
450 32.4684
455 34.3815
460 40.1385
465 37.5257
470 42.6758
475 36.3142
480 40.3737
485 38.2701
490 37.7864
495 34.3219
500 28.0006
505 29.9225
510 33.3883
515 30.4437
520 31.6013
525 27.646
530 33.501
535 37.4829
540 29.1957
545 35.9625
550 32.0638
555 36.8942
560 35.5517
565 37.5126
570 35.7265
575 36.5938
580 33.4556
585 30.6414
590 27.7629
595 27.3512
600 23.7167
Ex : 218
200 14.3956
205 10.1128
210 7.27456
215 9.64007
220 14.6165
225 8.99153
230 12.7139
235 9.20233
240 9.33106
245 11.8448
250 13.3067
255 11.7411
260 13.9076
265 10.8733
270 12.444
275 14.7236
280 19.1959
285 17.1476
290 15.675
295 12.8662
300 19.4262
305 19.6278
310 22.2474
315 17.9719
320 18.6311
325 28.0193
330 25.1152
335 27.3282
340 28.9734
345 26.615
350 31.4539
355 21.654
360 31.5418
365 28.0597
370 34.4112
375 30.9802
380 30.0388
385 36.0849
390 35.3794
395 35.4015
400 36.2273
405 40.6859
410 36.3451
415 31.7913
420 38.2722
425 38.907
430 36.9687
435 33.3935
440 37.6468
445 33.8842
450 32.168
455 40.797
460 41.5443
465 43.2967
470 35.4941
475 42.0937
480 39.1942
485 38.8031
490 34.3845
495 36.0757
500 38.8729
505 39.7683
510 35.8775
515 29.7918
520 36.1357
525 29.4595
530 31.1332
535 34.8978
540 35.8694
545 30.9967
550 40.5695
555 38.1181
560 33.6314
565 39.055
570 42.7515
575 36.5005
580 31.5028
585 30.7419
590 30.2617
595 26.3323
600 3.66117
Ex : 223
200 13.9271
205 7.90262
210 11.3341
215 9.34913
220 8.71057
225 7.70434
230 9.4009
235 12.3483
240 9.19815
245 11.2521
250 8.64085
255 11.2699
260 9.75944
265 12.5485
270 10.2585
275 13.0226
280 15.8277
285 13.9271
290 14.7805
295 18.6586
300 22.7369
305 19.0429
310 19.6188
315 19.101
320 20.2885
325 22.7414
330 31.5196
335 25.7235
340 25.5327
345 29.4964
350 26.4422
355 23.7907
360 26.9713
365 31.5602
370 29.7136
375 30.4491
380 34.5831
385 36.8287
390 35.5817
395 31.5077
400 30.2003
405 35.9737
410 35.9923
415 34.8556
420 35.0472
425 39.3426
430 31.6778
435 34.6053
440 29.7956
445 35.909
450 36.452
455 35.7134
460 49.4397
465 42.1796
470 40.7497
475 40.3902
480 35.9526
485 35.6652
490 35.3087
495 33.1415
500 31.0065
505 29.4475
510 31.2502
515 31.3
520 32.5983
525 30.7933
530 28.5217
535 25.5274
540 36.3773
545 31.5754
550 36.2266
555 37.2743
560 39.2722
565 36.5806
570 32.1749
575 32.5526
580 27.563
585 27.0001
590 31.7329
595 35.7114
600 11.3011
Ex : 228
200 6.57488
205 9.81006
210 10.1954
215 7.30033
220 6.97088
225 11.6023
230 11.8548
235 10.8874
240 12.0824
245 10.058
250 15.3321
255 14.0714
260 12.8155
265 8.06934
270 15.2467
275 11.2282
280 11.4691
285 13.4848
290 15.2336
295 15.3276
300 20.5374
305 15.4941
310 19.5004
315 19.4713
320 20.2979
325 19.6215
330 21.374
335 22.8566
340 26.8065
345 24.6192
350 23.8932
355 29.7148
360 27.0508
365 30.1495
370 26.395
375 30.1929
380 28.1591
385 35.0159
390 31.5628
395 32.174
400 31.4485
405 35.9206
410 37.1937
415 35.9666
420 32.2751
425 39.3922
430 35.1354
435 38.9147
440 35.2106
445 30.5205
450 36.2974
455 44.5104
460 46.068
465 43.1944
470 39.6373
475 32.9861
480 36.0709
485 31.6975
490 31.908
495 35.0119
500 29.1456
505 30.0672
510 28.3433
515 32.3313
520 31.0339
525 26.5681
530 26.7434
535 31.5574
540 36.0198
545 33.7071
550 36.1934
555 33.1735
560 40.6183
565 35.2632
570 37.9976
575 37.2485
580 40.818
585 29.436
590 23.4122
595 25.5106
600 26.2988
Ex : 233
200 9.90135
205 10.7348
210 7.10629
215 7.72265
220 11.7833
225 15.1307
230 18.3957
235 10.522
240 9.85929
245 6.88991
250 8.96912
255 9.84593
260 10.4216
265 12.7183
270 9.83503
275 11.3721
280 15.0403
285 11.498
290 13.0793
295 14.3588
300 16.7271
305 12.8058
310 23.2747
315 19.6147
320 19.8464
325 22.9046
330 21.8359
335 28.9587
340 23.2534
345 24.8634
350 26.2382
355 26.7773
360 31.7684
365 26.5575
370 26.0315
375 27.6101
380 28.1257
385 30.9762
390 28.792
395 28.9924
400 30.8955
405 30.9417
410 27.8468
415 27.7504
420 29.4554
425 26.2435
430 32.4025
435 27.6886
440 29.7125
445 30.3694
450 32.244
455 36.0588
460 79.9457
465 159.782
470 143.65
475 52.947
480 32.6664
485 33.1165
490 31.8143
495 31.0211
500 32.8659
505 32.8625
510 28.1383
515 28.4791
520 24.048
525 28.7965
530 31.8521
535 30.8016
540 30.5048
545 27.594
550 31.1778
555 33.1103
560 35.6205
565 37.3552
570 32.4152
575 32.2252
580 26.0408
585 32.0583
590 29.5755
595 26.9887
600 10.8698
Ex : 238
200 10.6508
205 6.59825
210 8.18133
215 6.95198
220 9.3008
225 13.2437
230 30.8916
235 60.7963
240 23.187
245 11.3395
250 8.83016
255 9.18919
260 12.4753
265 11.2955
270 14.2051
275 15.8242
280 14.0055
285 14.1006
290 16.3008
295 12.8543
300 17.7203
305 18.4746
310 20.1109
315 19.6737
320 17.4742
325 20.8755
330 19.8903
335 25.9196
340 26.5365
345 26.7519
350 25.8207
355 31.5415
360 28.9915
365 26.6346
370 24.2688
375 26.9099
380 31.1584
385 26.0309
390 29.0439
395 32.9194
400 25.9426
405 24.1207
410 25.994
415 25.0077
420 26.5403
425 23.6937
430 25.7722
435 27.9566
440 28.214
445 25.1604
450 28.2909
455 31.9218
460 35.2732
465 121.761
470 348.556
475 479.466
480 320.708
485 86.3729
490 38.7782
495 27.8651
500 24.2933
505 28.0856
510 29.8697
515 28.2949
520 32.4079
525 26.9892
530 24.5356
535 31.2971
540 27.2304
545 32.9669
550 33.6968
555 32.352
560 31.5125
565 30.1824
570 34.4333
575 32.5173
580 30.1382
585 26.9567
590 23.5238
595 22.9092
600 46.2082
Ex : 243
200 8.557
205 7.07703
210 7.14581
215 4.8361
220 7.54602
225 7.57642
230 11.3717
235 75.7551
240 111.475
245 31.3757
250 9.48554
255 8.1548
260 8.82795
265 10.1067
270 8.7096
275 9.52726
280 13.0755
285 11.3928
290 14.0733
295 13.0895
300 15.1658
305 15.7541
310 15.9336
315 17.8387
320 19.2422
325 17.5834
330 17.4982
335 18.326
340 19.4597
345 24.2612
350 20.8116
355 24.5893
360 21.1727
365 24.8687
370 23.2671
375 22.6058
380 20.6872
385 26.1786
390 25.8552
395 29.4253
400 26.387
405 26.4221
410 26.1281
415 25.6439
420 27.111
425 25.4392
430 24.2912
435 28.2114
440 25.4074
445 24.6989
450 25.4328
455 25.1249
460 28.0647
465 31.4644
470 55.618
475 277.803
480 671.069
485 717.848
490 409.21
495 94.1675
500 33.7453
505 24.2867
510 27.6377
515 29.0772
520 33.7234
525 32.2334
530 32.7671
535 29.7796
540 26.7456
545 29.874
550 32.2242
555 29.2774
560 28.5795
565 25.2425
570 28.1727
575 27.5027
580 26.2172
585 22.5521
590 22.4343
595 22.7449
600 23.6356
Ex : 248
200 5.92573
205 4.11502
210 3.86073
215 5.42816
220 4.88225
225 6.7615
230 4.67465
235 15.7856
240 109.312
245 152.262
250 36.4519
255 11.8025
260 10.3834
265 11.26
270 8.72111
275 11.8776
280 12.5424
285 11.3668
290 11.1306
295 12.0666
300 14.3986
305 14.0942
310 17.4403
315 20.4609
320 17.6861
325 17.8579
330 17.8972
335 16.7995
340 17.9255
345 19.7397
350 22.6314
355 21.4777
360 19.5441
365 20.2774
370 19.49
375 21.4437
380 22.0093
385 22.527
390 22.8871
395 22.8546
400 23.7465
405 21.3273
410 22.7507
415 23.195
420 22.0243
425 21.9809
430 18.0001
435 17.3789
440 21.7252
445 21.8146
450 21.5334
455 20.1379
460 25.4112
465 26.573
470 23.3019
475 22.4626
480 75.2154
485 388.539
490 899.789
495 926.217
500 410.537
505 85.8464
510 36.4671
515 28.7389
520 26.8552
525 29.3893
530 33.7254
535 36.2719
540 36.1971
545 31.2685
550 30.3839
555 29.8943
560 30.5017
565 26.0944
570 24.1899
575 28.0207
580 25.5822
585 25.8341
590 22.6615
595 20.4522
600 43.782
Ex : 253
200 2.5138
205 4.39567
210 4.47157
215 4.70201
220 4.03203
225 5.16702
230 4.5826
235 6.57337
240 12.4211
245 119.065
250 208.77
255 66.3704
260 13.7023
265 8.40106
270 11.1733
275 12.1512
280 11.2406
285 9.45558
290 13.5178
295 12.8898
300 10.4296
305 13.3783
310 13.937
315 16.4004
320 15.7198
325 16.0257
330 16.049
335 15.8459
340 17.1709
345 16.976
350 15.6298
355 18.0185
360 18.4759
365 17.9139
370 15.6149
375 16.7821
380 18.2506
385 19.6616
390 20.0452
395 19.1266
400 19.0726
405 18.7225
410 19.2708
415 18.3004
420 18.3775
425 16.5686
430 16.2214
435 14.6358
440 15.7318
445 19.3988
450 19.1839
455 16.1647
460 16.9506
465 20.2186
470 18.8898
475 18.0608
480 19.9076
485 21.5804
490 85.2265
495 429.829
500 1016.21
505 1349.95
510 718.878
515 156.628
520 42.7655
525 26.0056
530 29.918
535 30.2165
540 32.5921
545 35.1869
550 37.8683
555 30.9124
560 31.3569
565 25.9906
570 24.9462
575 25.9183
580 24.9479
585 22.5422
590 20.756
595 23.0912
600 25.4273
Ex : 258
200 2.91542
205 2.7314
210 4.67468
215 4.37964
220 4.527
225 3.56682
230 3.37973
235 5.48872
240 4.17985
245 14.845
250 277.78
255 531.956
260 165.286
265 26.9151
270 12.5427
275 11.8501
280 15.1078
285 12.1822
290 13.4987
295 12.601
300 14.1915
305 13.8385
310 15.7276
315 16.5646
320 15.8064
325 17.5938
330 16.6594
335 15.9985
340 17.57
345 19.3933
350 18.919
355 17.567
360 16.0104
365 18.1176
370 19.133
375 17.662
380 17.4462
385 13.7091
390 16.6866
395 16.9312
400 16.8158
405 17.181
410 18.3935
415 16.8121
420 15.8457
425 14.3721
430 14.3329
435 15.2947
440 14.3421
445 16.0576
450 15.2929
455 17.1127
460 17.0388
465 20.4867
470 17.7162
475 16.5852
480 17.0151
485 16.9988
490 19.1602
495 20.4771
500 97.2961
505 830.099
510 2775.09
515 3303.48
520 1731.43
525 310.292
530 71.7682
535 37.2773
540 33.0213
545 30.0231
550 31.3014
555 36.0093
560 42.8736
565 39.3399
570 30.9911
575 30.9495
580 26.1136
585 24.8337
590 20.6939
595 22.1888
600 25.0891
Ex : 263
200 2.33249
205 2.25882
210 3.06258
215 2.97104
220 3.41897
225 3.52616
230 3.24512
235 3.67763
240 3.7412
245 3.72008
250 32.7358
255 612.146
260 1229.49
265 322.317
270 49.7419
275 17.6264
280 16.4259
285 19.4195
290 15.7772
295 13.929
300 16.3108
305 15.649
310 16.3721
315 16.8512
320 18.9663
325 16.5912
330 16.6691
335 15.5708
340 16.9739
345 16.6071
350 14.911
355 15.5859
360 15.8314
365 15.7473
370 15.1683
375 13.6058
380 13.0922
385 14.8594
390 14.6132
395 13.5988
400 13.6243
405 13.1965
410 16.0653
415 14.8747
420 14.2828
425 13.2102
430 14.4087
435 13.8741
440 14.155
445 14.0142
450 14.8279
455 15.3785
460 15.3542
465 16.8217
470 16.3772
475 16.4798
480 15.222
485 15.6852
490 15.1837
495 16.9348
500 17.3148
505 21.2436
510 265.594
515 2077.31
520 5891.88
525 6481.26
530 2832.48
535 482.504
540 95.1792
545 46.7835
550 36.8025
555 36.8152
560 38.6463
565 44.5713
570 45.4157
575 39.688
580 36.2906
585 33.0398
590 27.5333
595 26.9219
600 36.5178
Ex : 268
200 3.12846
205 2.65244
210 2.83473
215 2.87404
220 3.50541
225 3.45626
230 2.91934
235 3.40647
240 3.69521
245 4.61619
250 5.19176
255 54.9797
260 1082.24
265 1994.34
270 595.16
275 85.1033
280 24.4381
285 19.9553
290 21.763
295 20.0875
300 17.9174
305 18.0139
310 18.0542
315 17.3662
320 17.2387
325 15.2033
330 14.6147
335 16.1204
340 16.0443
345 16.886
350 16.4737
355 15.1791
360 14.7966
365 14.6759
370 13.182
375 13.7525
380 11.7943
385 12.5555
390 13.0096
395 13.8899
400 14.0368
405 12.5742
410 12.3717
415 11.9255
420 12.18
425 11.9093
430 12.0732
435 13.335
440 11.9824
445 12.2261
450 12.1635
455 13.3636
460 13.1384
465 13.3616
470 14.402
475 14.383
480 14.4805
485 13.1152
490 14.6394
495 15.5468
500 15.5597
505 15.84
510 18.1706
515 26.181
520 427.506
525 3361.02
530 9183.86
535 9999.9
540 4577.67
545 773.262
550 139.012
555 58.3016
560 45.6318
565 42.5509
570 40.7591
575 44.2921
580 45.461
585 44.7354
590 38.6659
595 33.7648
600 38.6524
Ex : 273
200 2.40709
205 2.17504
210 2.79983
215 2.47182
220 2.72147
225 2.71381
230 3.19249
235 3.24587
240 3.19996
245 4.23641
250 4.37383
255 6.18831
260 96.7888
265 1949.53
270 3601.5
275 924.158
280 126.63
285 33.0885
290 24.1536
295 26.0937
300 23.2408
305 19.6774
310 20.0758
315 17.8185
320 18.5741
325 17.4845
330 16.2734
335 15.7493
340 16.3761
345 15.6351
350 16.0705
355 15.7187
360 14.3919
365 14.7019
370 12.5648
375 12.3758
380 12.3961
385 12.729
390 12.0444
395 12.8026
400 12.1867
405 11.2492
410 12.2603
415 12.109
420 11.3547
425 10.9348
430 12.009
435 12.5552
440 12.4889
445 11.3699
450 11.4464
455 12.263
460 11.8971
465 13.3089
470 12.218
475 12.7333
480 13.3071
485 12.3374
490 13.6392
495 13.7955
500 13.0682
505 13.8221
510 16.5237
515 19.4249
520 22.386
525 36.1276
530 757.869
535 5903.09
540 9999.9
545 9999.9
550 5399.4
555 884.197
560 157.743
565 67.7391
570 49.2111
575 45.0153
580 42.8323
585 44.7812
590 46.2948
595 45.824
600 42.1102
Ex : 278
200 2.24352
205 2.46196
210 2.4571
215 2.66432
220 2.14289
225 2.95796
230 2.77481
235 3.51559
240 3.23181
245 3.4155
250 4.49101
255 4.76177
260 8.42318
265 150.345
270 2865.83
275 5071.62
280 1235.03
285 165.827
290 38.812
295 24.7666
300 27.2434
305 23.2528
310 20.4203
315 19.1346
320 18.6001
325 16.4538
330 16.8804
335 16.9635
340 16.5834
345 16.696
350 14.7128
355 14.7078
360 13.8812
365 12.7913
370 12.734
375 12.136
380 11.7066
385 12.694
390 12.5578
395 12.9043
400 11.9545
405 12.0927
410 11.1862
415 10.8195
420 11.131
425 11.2761
430 11.2597
435 12.305
440 11.2931
445 10.5871
450 10.1435
455 11.2365
460 11.5405
465 11.8824
470 13.4016
475 11.7073
480 11.9023
485 12.5466
490 12.1926
495 12.7808
500 12.7751
505 12.5322
510 13.7506
515 15.5975
520 17.219
525 19.8522
530 27.097
535 46.9841
540 1155.16
545 8027.15
550 9999.9
555 9999.9
560 6004.23
565 991.819
570 172.01
575 68.4878
580 50.2287
585 41.0032
590 39.4999
595 37.5864
600 45.7655
Ex : 283
200 2.50973
205 2.13712
210 2.69974
215 2.63876
220 2.20736
225 2.91542
230 2.86154
235 3.18926
240 2.88211
245 3.8396
250 4.11207
255 4.15912
260 6.13628
265 9.7163
270 203.419
275 3689.28
280 5956.13
285 1483.74
290 194.256
295 40.5612
300 21.9264
305 23.4383
310 21.3424
315 18.3733
320 16.9454
325 15.3475
330 15.2629
335 15.947
340 14.7841
345 15.4681
350 14.0446
355 12.9823
360 12.5788
365 12.4459
370 11.6023
375 11.5476
380 11.5613
385 11.9145
390 10.5672
395 10.9221
400 11.9267
405 12.1915
410 10.4363
415 11.9579
420 11.0656
425 11.2668
430 10.5014
435 9.75244
440 10.9429
445 10.8629
450 10.5828
455 11.422
460 11.1169
465 10.8965
470 10.8465
475 10.8036
480 10.6502
485 11.0354
490 11.1607
495 10.8216
500 10.9133
505 11.4499
510 12.8645
515 13.0691
520 14.0745
525 14.3615
530 16.8577
535 23.0609
540 31.6751
545 56.5667
550 1497.52
555 9333.65
560 9999.9
565 9999.9
570 6084.23
575 967.941
580 164.563
585 62.4342
590 41.8892
595 34.5358
600 39.3975
Ex : 288
200 2.05093
205 2.33615
210 2.318
215 2.28928
220 2.41233
225 2.52783
230 2.55007
235 2.92332
240 3.28576
245 3.08479
250 4.18082
255 3.96063
260 4.57552
265 6.67279
270 11.2213
275 226.296
280 4315.74
285 6817.02
290 1695.49
295 217.939
300 41.9303
305 20.9729
310 21.2096
315 21.0157
320 17.6067
325 14.8319
330 15.0995
335 13.7282
340 14.3154
345 13.8152
350 12.9433
355 12.2688
360 11.3729
365 11.9519
370 10.5265
375 10.6948
380 10.9641
385 10.8609
390 11.707
395 10.7276
400 11.2558
405 11.1112
410 10.1422
415 11.276
420 10.4797
425 9.62503
430 10.6101
435 9.52886
440 9.57474
445 9.34025
450 9.86561
455 9.23251
460 10.0617
465 9.97035
470 10.2519
475 9.67395
480 9.95266
485 9.72942
490 9.99156
495 9.76744
500 9.68876
505 10.4063
510 10.8104
515 10.7841
520 11.554
525 12.6331
530 14.2842
535 15.9413
540 18.9183
545 23.6208
550 33.9042
555 59.0742
560 1607.64
565 9924.63
570 9999.9
575 9999.9
580 5863.58
585 908.945
590 150.811
595 55.0574
600 40.5597
Ex : 293
200 2.21029
205 1.96451
210 2.15001
215 2.19546
220 2.43908
225 2.71386
230 2.39134
235 2.34777
240 2.7796
245 2.849
250 3.73494
255 3.85948
260 4.42173
265 5.13679
270 7.03291
275 11.8672
280 297.934
285 4895.61
290 7313.89
295 1772.84
300 227.781
305 44.6022
310 19.5846
315 20.393
320 21.3043
325 17.1755
330 14.1764
335 13.3692
340 13.1289
345 12.8323
350 11.6392
355 12.2607
360 11.6112
365 10.6185
370 10.7877
375 10.9819
380 9.75719
385 10.8609
390 10.7565
395 11.0124
400 10.8529
405 11.1415
410 10.8198
415 10.699
420 9.84812
425 9.54247
430 9.19238
435 9.48371
440 8.81411
445 9.28615
450 8.86191
455 9.17736
460 9.14975
465 9.30425
470 9.33214
475 9.42059
480 8.11078
485 8.83939
490 8.88755
495 8.40763
500 8.86854
505 8.68761
510 8.83101
515 8.90401
520 9.87328
525 9.72929
530 10.8242
535 12.1471
540 13.9113
545 17.0857
550 19.598
555 25.6134
560 35.035
565 66.5996
570 1861.73
575 9999.9
580 9999.9
585 9999.9
590 5007.43
595 734.355
600 136.306
Ex : 298
200 2.43762
205 2.23651
210 2.22788
215 2.15939
220 1.97009
225 2.1237
230 2.36814
235 2.18481
240 2.50585
245 3.02661
250 2.38604
255 3.03868
260 3.50722
265 3.9897
270 5.55889
275 7.933
280 13.7286
285 318.827
290 5413.79
295 8106.7
300 1988.81
305 252.181
310 46.3007
315 19.7011
320 19.344
325 20.395
330 17.411
335 13.4341
340 12.434
345 11.5911
350 11.7173
355 10.5827
360 10.0518
365 10.3451
370 9.62831
375 9.91338
380 9.93151
385 9.85695
390 10.2609
395 10.6083
400 10.3255
405 10.1406
410 10.6293
415 9.79984
420 9.61402
425 9.2014
430 9.29152
435 8.46858
440 8.13906
445 7.7967
450 8.19761
455 8.56174
460 8.23929
465 8.62629
470 8.28703
475 7.50264
480 7.80713
485 7.87229
490 8.0024
495 7.23691
500 7.75952
505 7.84927
510 7.21216
515 7.43496
520 8.22406
525 8.49366
530 8.95322
535 9.41507
540 10.7491
545 11.2936
550 13.6785
555 15.448
560 19.6024
565 24.7334
570 33.63
575 71.4009
580 2091.43
585 9999.9
590 9999.9
595 9999.9
600 8233.36
Ex : 303
200 1.97582
205 1.95883
210 2.21179
215 2.17371
220 2.02967
225 2.09888
230 1.95728
235 2.22087
240 2.45055
245 2.69051
250 2.5114
255 2.44472
260 2.86996
265 3.25399
270 4.52268
275 6.01385
280 8.04422
285 12.6988
290 338.197
295 5986.65
300 9109.68
305 2154.7
310 273.278
315 49.3146
320 19.9881
325 18.3908
330 20.5146
335 17.6563
340 12.8307
345 10.7242
350 10.7208
355 9.41476
360 8.9401
365 9.20749
370 8.91901
375 8.92183
380 8.93074
385 9.6204
390 9.54266
395 9.16289
400 9.39591
405 9.44402
410 9.55975
415 8.70026
420 8.37245
425 8.37293
430 8.17907
435 7.72676
440 7.59203
445 7.4707
450 7.6621
455 7.62628
460 7.48708
465 7.06774
470 7.55694
475 7.19683
480 6.94844
485 6.18101
490 6.53204
495 6.94929
500 6.84243
505 6.73916
510 6.50842
515 7.39277
520 6.84742
525 7.46755
530 7.76844
535 7.76134
540 8.44859
545 9.77661
550 10.3952
555 11.7866
560 13.6046
565 15.6813
570 18.5569
575 23.9785
580 32.5867
585 75.6403
590 2277.72
595 9999.9
600 9999.9
Ex : 308
200 1.64435
205 1.88373
210 1.7738
215 1.92481
220 1.70923
225 2.03902
230 2.14636
235 1.9647
240 2.2795
245 2.46622
250 2.41856
255 2.61264
260 2.85805
265 3.68637
270 3.87893
275 4.54765
280 6.18051
285 8.40494
290 13.9097
295 410.253
300 6515.14
305 9574.87
310 2256.9
315 284.105
320 50.9988
325 20.3629
330 17.0953
335 19.909
340 17.1009
345 12.5401
350 10.6462
355 9.78599
360 8.93134
365 8.97575
370 8.48396
375 8.4907
380 8.12619
385 8.56075
390 8.5314
395 8.79525
400 8.68584
405 8.60504
410 8.77551
415 8.34232
420 7.70339
425 7.22344
430 6.9255
435 7.02227
440 7.21451
445 6.96921
450 7.2931
455 7.30081
460 6.92306
465 6.71794
470 6.53032
475 6.80131
480 6.58099
485 6.55624
490 6.37774
495 6.134
500 6.42342
505 6.27894
510 6.04441
515 6.23199
520 5.97884
525 6.23063
530 6.39376
535 6.87561
540 6.98111
545 7.65242
550 8.2584
555 9.61551
560 10.2965
565 10.8592
570 12.344
575 14.6349
580 17.6521
585 23.2105
590 31.9892
595 86.9232
600 390.157
Ex : 313
200 1.79589
205 1.88755
210 1.86989
215 1.6271
220 1.77101
225 1.80645
230 1.98682
235 2.1456
240 2.09478
245 2.15045
250 2.2997
255 2.38679
260 2.62629
265 2.84973
270 3.71022
275 4.13236
280 4.82491
285 6.20158
290 8.72992
295 15.1984
300 433.666
305 7382.54
310 9999.9
315 2414.34
320 303.354
325 53.8199
330 20.6567
335 16.384
340 17.7786
345 17.0795
350 13.3551
355 10.0843
360 9.27532
365 8.37471
370 7.95159
375 7.93877
380 8.11578
385 8.01659
390 8.37975
395 7.85917
400 7.60318
405 7.24951
410 7.29617
415 7.2042
420 7.02324
425 7.20562
430 6.79715
435 6.78223
440 5.9237
445 6.46242
450 6.13704
455 5.91929
460 6.19781
465 6.38358
470 6.22975
475 5.9113
480 5.99781
485 5.48764
490 5.78469
495 5.48431
500 5.83314
505 5.72166
510 5.52522
515 5.97795
520 5.75243
525 5.86592
530 6.06714
535 6.21988
540 6.3161
545 6.71334
550 6.81639
555 7.468
560 8.12702
565 8.57975
570 10.2382
575 10.2381
580 12.5647
585 14.8635
590 17.5492
595 21.3017
600 29.4943
Ex : 318
200 1.6472
205 1.76093
210 1.44578
215 1.91864
220 2.12186
225 1.98497
230 2.06074
235 1.75584
240 1.74074
245 2.01878
250 2.12636
255 2.17408
260 2.21245
265 2.55226
270 2.94057
275 3.68397
280 4.23892
285 5.31288
290 6.36384
295 9.09323
300 16.1343
305 547.5
310 8306.68
315 9999.9
320 2522.67
325 316.509
330 55.065
335 21.0389
340 16.0133
345 17.541
350 17.1177
355 13.6103
360 10.1051
365 8.83262
370 8.55873
375 8.27851
380 8.27914
385 8.1482
390 7.33384
395 7.6258
400 7.53111
405 7.50702
410 6.86983
415 6.57806
420 6.44344
425 6.07222
430 5.95956
435 6.17676
440 6.04135
445 5.97013
450 6.05762
455 6.34116
460 6.18709
465 6.02988
470 6.26844
475 5.90443
480 5.91909
485 5.52735
490 5.31554
495 5.43668
500 5.30241
505 5.17516
510 5.20629
515 5.31623
520 5.75524
525 5.29681
530 5.5547
535 5.08212
540 5.73362
545 5.58381
550 6.51468
555 6.64717
560 7.08079
565 7.13349
570 7.89473
575 8.33681
580 9.23819
585 10.8182
590 12.2042
595 14.013
600 14.9853
Ex : 323
200 1.56514
205 1.59906
210 1.79571
215 1.74672
220 1.75751
225 1.66675
230 1.8041
235 1.73141
240 1.85438
245 2.15876
250 2.13382
255 2.11078
260 2.38898
265 2.63936
270 2.87065
275 2.88473
280 3.27156
285 4.15843
290 5.03984
295 6.58624
300 10.0619
305 17.1026
310 568.312
315 8972.47
320 9999.9
325 2802.34
330 349.993
335 59.7524
340 21.6607
345 15.4078
350 15.5445
355 17.258
360 15.1296
365 10.0412
370 8.67699
375 8.01476
380 7.75754
385 8.08958
390 7.65263
395 7.77485
400 6.95421
405 6.85829
410 6.57852
415 6.68677
420 6.38973
425 6.3694
430 5.87811
435 5.66807
440 5.87224
445 5.99094
450 5.6423
455 5.74706
460 5.57401
465 5.99773
470 5.69867
475 5.48862
480 5.54068
485 5.06812
490 5.26219
495 5.18502
500 5.18609
505 5.03236
510 4.95367
515 4.80162
520 5.36771
525 5.2556
530 5.10872
535 5.09729
540 5.29365
545 5.42106
550 5.58604
555 5.64026
560 5.96099
565 5.71641
570 5.9887
575 6.78471
580 7.49316
585 7.37766
590 8.60437
595 9.93555
600 9.47177
Ex : 328
200 1.57974
205 1.5581
210 1.49144
215 1.54613
220 1.63902
225 1.74691
230 1.74412
235 1.76393
240 1.82536
245 2.025
250 1.97005
255 2.09843
260 2.32421
265 2.29512
270 2.59515
275 2.83937
280 3.40938
285 3.74864
290 4.34651
295 5.49703
300 7.04822
305 9.98608
310 17.9052
315 587.367
320 9717.11
325 9999.9
330 2819.84
335 353.497
340 60.9334
345 21.0846
350 14.9967
355 15.1204
360 16.2768
365 14.6271
370 11.4967
375 8.87695
380 8.02422
385 7.555
390 7.91107
395 6.96393
400 6.56159
405 6.41635
410 6.45411
415 6.25106
420 5.99389
425 5.59088
430 5.74405
435 5.77733
440 5.55124
445 5.37565
450 5.29314
455 5.44446
460 5.85796
465 5.76916
470 5.61149
475 5.09082
480 4.95162
485 4.97746
490 4.93296
495 4.91606
500 4.6887
505 4.67968
510 5.01436
515 4.76624
520 4.77025
525 4.66018
530 4.71014
535 4.80142
540 4.99757
545 4.80401
550 5.11673
555 5.05767
560 5.23499
565 5.29365
570 5.90182
575 5.38929
580 5.94209
585 6.11764
590 7.11467
595 7.58404
600 9.54783
Ex : 333
200 1.55069
205 1.47084
210 1.51145
215 1.5131
220 1.58952
225 1.55861
230 1.71172
235 1.68353
240 1.7651
245 1.81646
250 2.04908
255 2.03094
260 2.00714
265 2.28603
270 2.39883
275 2.37235
280 2.64207
285 3.19998
290 3.71364
295 4.58609
300 5.54433
305 7.54734
310 11.2415
315 18.9387
320 697.972
325 9999.9
330 9999.9
335 2930.52
340 365.851
345 61.8464
350 20.9135
355 14.5929
360 13.9615
365 15.9446
370 14.6849
375 11.7779
380 8.95416
385 7.89558
390 8.20893
395 7.34876
400 7.01251
405 6.74552
410 6.88381
415 6.3286
420 6.106
425 5.9151
430 5.64935
435 5.4483
440 5.2411
445 5.14065
450 5.56356
455 5.36775
460 5.59702
465 5.74531
470 5.35201
475 5.09745
480 5.12861
485 4.77468
490 4.77621
495 4.71608
500 4.58791
505 4.57847
510 4.60851
515 4.34619
520 4.56984
525 4.49304
530 4.39038
535 4.4413
540 4.50218
545 4.2789
550 4.61857
555 4.58312
560 4.65165
565 4.54548
570 5.02229
575 5.20101
580 5.27254
585 5.37912
590 5.25509
595 5.86949
600 5.08773
Ex : 338
200 1.4313
205 1.35126
210 1.43334
215 1.63714
220 1.47512
225 1.42658
230 1.47519
235 1.59951
240 1.56697
245 1.7476
250 1.62733
255 1.89545
260 2.04971
265 1.95418
270 2.05745
275 2.17963
280 2.65378
285 2.777
290 3.2688
295 3.83863
300 4.56366
305 5.90266
310 7.76157
315 11.8513
320 20.6539
325 776.718
330 9999.9
335 9999.9
340 3021.65
345 376.324
350 62.2741
355 20.9387
360 13.9797
365 12.754
370 14.2034
375 14.7867
380 12.8101
385 9.537
390 8.07061
395 7.60714
400 7.70263
405 7.02768
410 6.3553
415 6.60058
420 6.49061
425 6.0798
430 5.27325
435 5.51609
440 5.50385
445 5.24556
450 5.72118
455 4.96419
460 5.15558
465 5.55124
470 5.07726
475 4.88789
480 4.81777
485 4.68953
490 4.74128
495 4.49945
500 4.17484
505 4.63544
510 4.25404
515 4.47416
520 4.07359
525 4.26664
530 4.27973
535 4.16568
540 3.98153
545 4.18635
550 4.6411
555 4.40015
560 4.17761
565 4.28866
570 4.29663
575 4.56156
580 4.6506
585 4.48701
590 4.72545
595 5.17681
600 3.92389
Ex : 343
200 1.3422
205 1.2072
210 1.30486
215 1.31389
220 1.44879
225 1.38924
230 1.39282
235 1.50647
240 1.57499
245 1.47589
250 1.67874
255 1.74324
260 1.69227
265 2.00677
270 2.14779
275 2.29544
280 2.33974
285 2.69296
290 2.81419
295 3.39219
300 3.82544
305 4.57779
310 6.02811
315 7.80945
320 12.2936
325 21.2021
330 769.87
335 9999.9
340 9999.9
345 3119.84
350 388.401
355 64.8603
360 21.0396
365 14.1353
370 12.3462
375 13.2073
380 13.854
385 12.6109
390 9.5591
395 8.09533
400 7.50934
405 6.90369
410 6.80016
415 6.27256
420 6.03825
425 5.95965
430 5.752
435 5.49814
440 5.21041
445 5.38067
450 5.42872
455 5.24362
460 5.19189
465 5.20299
470 5.01027
475 4.58773
480 4.61496
485 4.74639
490 4.56332
495 4.3401
500 4.30165
505 4.1189
510 3.89674
515 4.1556
520 3.97984
525 3.8288
530 3.61095
535 3.96238
540 4.06941
545 3.96065
550 3.95334
555 3.97358
560 4.05464
565 3.91927
570 3.87477
575 3.74684
580 3.88953
585 3.99928
590 3.80766
595 4.31006
600 5.91319
Ex : 348
200 1.21017
205 1.25049
210 1.17881
215 1.37366
220 1.33407
225 1.26364
230 1.28332
235 1.463
240 1.46159
245 1.47484
250 1.7921
255 1.64441
260 1.73544
265 1.81182
270 1.89499
275 1.9068
280 2.22744
285 2.29607
290 2.50431
295 2.80159
300 3.33155
305 4.19373
310 4.90919
315 6.30236
320 8.17538
325 12.4374
330 21.4285
335 744.204
340 9999.9
345 9999.9
350 3533.43
355 436.654
360 69.5981
365 22.452
370 14.6368
375 11.846
380 11.8872
385 13.9281
390 13.1322
395 10.3716
400 7.99243
405 7.08043
410 6.98374
415 6.49568
420 6.17555
425 6.25399
430 5.94104
435 5.3631
440 5.42245
445 5.21597
450 5.33097
455 5.19688
460 5.2815
465 5.11808
470 5.05504
475 4.90656
480 4.81826
485 4.82346
490 4.32529
495 4.26767
500 4.10825
505 4.00379
510 3.83093
515 3.95793
520 3.85798
525 3.67488
530 3.66585
535 3.50044
540 3.71614
545 3.82947
550 3.44607
555 3.55956
560 3.78486
565 3.34499
570 3.32062
575 3.45117
580 3.52162
585 3.40031
590 3.60515
595 3.90603
600 3.02925
Ex : 353
200 1.13377
205 1.23946
210 1.04567
215 1.14126
220 1.19061
225 1.22634
230 1.25298
235 1.24709
240 1.38285
245 1.28715
250 1.43129
255 1.58581
260 1.69746
265 1.6291
270 1.68723
275 1.88283
280 1.977
285 2.11856
290 2.2968
295 2.59457
300 2.89725
305 3.34027
310 4.02828
315 5.00116
320 6.25795
325 8.62569
330 13.0427
335 22.1101
340 784.19
345 9999.9
350 9999.9
355 3472.33
360 429.183
365 69.3534
370 22.3478
375 14.3554
380 11.7453
385 11.3893
390 13.3605
395 13.1953
400 11.2694
405 7.98396
410 7.29764
415 6.65098
420 6.22056
425 6.27077
430 5.96367
435 5.51359
440 4.97385
445 5.24962
450 5.14013
455 4.93981
460 4.97638
465 4.94631
470 4.8212
475 4.53273
480 4.24289
485 4.30551
490 4.17625
495 4.02595
500 3.98606
505 4.016
510 3.66733
515 3.60568
520 3.64249
525 3.56722
530 3.41429
535 3.39555
540 3.42641
545 3.54798
550 3.40957
555 3.50202
560 3.65065
565 3.45507
570 3.16951
575 3.25264
580 3.06398
585 3.14595
590 2.98694
595 3.14668
600 3.39707
Ex : 358
200 1.08165
205 1.0999
210 1.08636
215 0.993107
220 1.05904
225 1.15292
230 1.2428
235 1.1214
240 1.22259
245 1.32743
250 1.39518
255 1.48911
260 1.50595
265 1.57765
270 1.58348
275 1.7284
280 1.75167
285 1.95672
290 2.33314
295 2.63327
300 2.76957
305 3.04837
310 3.26165
315 4.14547
320 4.93724
325 6.33517
330 8.60215
335 12.8145
340 21.9799
345 767.472
350 9999.9
355 9999.9
360 3565.4
365 439.812
370 70.5395
375 22.3357
380 14.6488
385 11.5988
390 10.6286
395 12.4551
400 12.6039
405 11.8576
410 9.03154
415 7.33389
420 6.75912
425 6.1263
430 5.85723
435 5.77995
440 5.58005
445 5.29789
450 5.25002
455 5.22084
460 4.94909
465 4.72932
470 4.8386
475 4.55351
480 4.32491
485 4.18292
490 4.32481
495 4.14548
500 3.91074
505 3.72442
510 3.54618
515 3.67165
520 3.4485
525 3.17931
530 3.31309
535 3.11495
540 3.06453
545 3.16923
550 3.17623
555 3.16976
560 3.10157
565 3.0429
570 2.92136
575 2.98464
580 2.81236
585 2.77105
590 2.83026
595 2.9252
600 2.35848
Ex : 363
200 1.01581
205 1.0096
210 1.05582
215 0.998152
220 1.16621
225 1.2349
230 1.19528
235 1.10485
240 1.16135
245 1.10514
250 1.1852
255 1.24757
260 1.32661
265 1.27934
270 1.40236
275 1.62295
280 1.70608
285 1.87169
290 2.05213
295 2.14473
300 2.45663
305 2.53804
310 2.90754
315 3.3729
320 4.12282
325 5.12764
330 6.40896
335 8.66123
340 12.7728
345 22.2851
350 718.582
355 9999.9
360 9999.9
365 3779.39
370 465.442
375 73.5377
380 22.7721
385 14.1792
390 11.3482
395 10.0277
400 11.3913
405 12.5484
410 11.7987
415 9.01546
420 7.38642
425 6.33725
430 6.343
435 5.68036
440 5.68547
445 5.38698
450 4.97501
455 4.82035
460 5.11683
465 4.87256
470 4.70898
475 4.44544
480 4.30481
485 4.14404
490 3.95845
495 3.99966
500 3.68309
505 3.5806
510 3.61482
515 3.29594
520 3.25571
525 3.07199
530 3.20416
535 2.94602
540 3.073
545 2.81722
550 3.02495
555 2.99281
560 2.91414
565 2.65803
570 2.77736
575 2.7653
580 2.53575
585 2.50679
590 2.48227
595 2.34728
600 2.33377
Ex : 368
200 0.965799
205 0.955837
210 0.980428
215 1.04623
220 1.0377
225 1.12842
230 1.0756
235 1.06106
240 1.09471
245 1.09405
250 1.17943
255 1.26602
260 1.35044
265 1.33105
270 1.41808
275 1.38059
280 1.69992
285 1.66356
290 1.827
295 1.99057
300 2.04769
305 2.31877
310 2.36333
315 3.0123
320 3.24043
325 4.29772
330 5.1229
335 6.36476
340 8.72014
345 13.0249
350 22.0137
355 617.286
360 9999.9
365 9999.9
370 4096.81
375 504.141
380 78.4398
385 23.6298
390 14.6198
395 11.8625
400 9.52281
405 10.5316
410 12.0066
415 11.4985
420 9.91932
425 7.44281
430 6.59801
435 5.9822
440 5.59572
445 5.39343
450 5.19913
455 5.13036
460 4.82256
465 4.80697
470 4.65136
475 4.44128
480 4.20059
485 4.13878
490 3.85919
495 3.60734
500 3.44287
505 3.59348
510 3.39132
515 3.29256
520 3.23137
525 2.97829
530 3.03878
535 2.902
540 2.87428
545 2.77202
550 2.70847
555 2.64767
560 2.73646
565 2.4132
570 2.44776
575 2.38142
580 2.26544
585 2.34525
590 2.34403
595 2.35096
600 3.03327
Ex : 373
200 1.01405
205 1.10219
210 1.10783
215 0.924706
220 0.981458
225 1.01744
230 0.884229
235 1.18468
240 1.07518
245 1.09713
250 1.08902
255 1.15311
260 1.30307
265 1.27738
270 1.37374
275 1.40782
280 1.53831
285 1.68417
290 1.69813
295 1.88866
300 1.9591
305 2.0918
310 2.42632
315 2.72213
320 3.10581
325 3.80336
330 4.37769
335 5.24483
340 6.6162
345 9.03543
350 13.3237
355 22.974
360 757.677
365 9999.9
370 9999.9
375 4143.7
380 507.378
385 78.6172
390 23.9456
395 14.9625
400 11.5552
405 9.50802
410 9.97104
415 11.6819
420 11.0936
425 9.87296
430 7.78226
435 6.49363
440 5.84804
445 5.69262
450 5.43647
455 5.12515
460 5.01788
465 5.13283
470 4.69572
475 4.61307
480 4.30311
485 4.12285
490 4.02599
495 3.79172
500 3.57441
505 3.33955
510 3.2528
515 3.04976
520 3.18855
525 2.86318
530 2.92586
535 2.75147
540 2.79939
545 2.64556
550 2.61537
555 2.46694
560 2.55806
565 2.37229
570 2.29868
575 2.50628
580 2.22998
585 2.11191
590 2.13966
595 2.16894
600 1.27295
Ex : 378
200 0.974054
205 0.914851
210 0.93208
215 1.02094
220 1.0292
225 1.08057
230 1.02543
235 1.02282
240 1.08225
245 1.06602
250 1.12498
255 1.28958
260 1.16058
265 1.23435
270 1.368
275 1.33062
280 1.5193
285 1.41667
290 1.63505
295 1.75666
300 1.84847
305 2.12087
310 2.28665
315 2.40532
320 2.67816
325 3.25791
330 3.65927
335 4.42422
340 5.52905
345 7.21824
350 9.2516
355 13.6458
360 23.5069
365 745.418
370 9999.9
375 9999.9
380 4250.1
385 521.551
390 81.1487
395 24.6963
400 14.8813
405 11.7522
410 9.48225
415 9.13706
420 10.6706
425 10.9405
430 10.2387
435 8.30454
440 6.60424
445 6.03994
450 5.54197
455 5.34686
460 5.06001
465 5.17949
470 4.79015
475 4.51896
480 4.25988
485 4.10321
490 3.92363
495 3.55096
500 3.53676
505 3.35154
510 3.24317
515 3.097
520 3.14114
525 2.83837
530 2.75633
535 2.76051
540 2.58663
545 2.5987
550 2.35591
555 2.37671
560 2.32843
565 2.34904
570 2.24346
575 2.09537
580 1.98641
585 1.98501
590 2.07636
595 1.98694
600 1.83418
Ex : 383
200 0.977623
205 0.910068
210 0.973741
215 0.992303
220 0.904006
225 0.937493
230 1.05341
235 1.08149
240 1.00042
245 1.06319
250 1.16167
255 1.04738
260 1.1286
265 1.24656
270 1.18322
275 1.32368
280 1.35742
285 1.44599
290 1.55036
295 1.60692
300 1.7078
305 1.87876
310 2.02993
315 2.23175
320 2.44214
325 2.75844
330 3.13732
335 3.81156
340 4.4753
345 5.34087
350 6.89016
355 9.28594
360 13.4422
365 23.2881
370 700.431
375 9999.9
380 9999.9
385 4498.62
390 552.131
395 85.4941
400 24.6193
405 15.2067
410 11.5365
415 9.26438
420 8.51477
425 9.72787
430 10.2223
435 10.0202
440 8.3003
445 6.66105
450 5.99609
455 5.58291
460 5.23815
465 5.20682
470 4.72791
475 4.65043
480 4.18113
485 3.94613
490 3.96293
495 3.76893
500 3.45365
505 3.2275
510 3.06447
515 3.13865
520 3.06231
525 2.96981
530 2.87493
535 2.67722
540 2.53338
545 2.37906
550 2.4746
555 2.36203
560 2.37254
565 2.17871
570 2.17645
575 2.17751
580 1.88414
585 1.87129
590 1.81711
595 1.73505
600 2.07528
Ex : 388
200 0.90858
205 0.944766
210 0.974651
215 1.07793
220 1.00425
225 1.04126
230 1.06695
235 0.938641
240 1.00527
245 0.976681
250 1.06238
255 1.14096
260 1.16424
265 1.24428
270 1.21365
275 1.32658
280 1.38696
285 1.34105
290 1.65685
295 1.59975
300 1.76154
305 1.83656
310 1.91743
315 2.18937
320 2.3693
325 2.57991
330 2.88376
335 3.19044
340 3.88695
345 4.49362
350 5.63023
355 7.07463
360 9.82193
365 14.4601
370 24.1681
375 757.535
380 9999.9
385 9999.9
390 4623.28
395 565.051
400 86.8416
405 25.1728
410 15.0676
415 11.5545
420 8.96961
425 8.13355
430 9.26729
435 10.1177
440 9.901
445 8.98517
450 7.0735
455 5.91978
460 5.59232
465 5.44548
470 5.04332
475 4.57934
480 4.28459
485 4.05249
490 3.94548
495 3.71281
500 3.51186
505 3.23021
510 3.24645
515 3.05566
520 2.93511
525 2.84634
530 2.7238
535 2.85374
540 2.59957
545 2.40568
550 2.43988
555 2.32471
560 2.2307
565 2.3
570 2.21695
575 2.08003
580 1.92567
585 1.80163
590 1.74365
595 1.77681
600 1.97733
Ex : 393
200 0.887735
205 0.924486
210 1.01966
215 1.00785
220 0.930039
225 1.07988
230 1.07455
235 1.14649
240 1.10301
245 1.068
250 1.04131
255 1.15619
260 1.19706
265 1.13633
270 1.22774
275 1.26061
280 1.44284
285 1.51445
290 1.5894
295 1.6544
300 1.60577
305 1.69374
310 1.99207
315 2.07763
320 2.26081
325 2.49908
330 2.75502
335 2.96777
340 3.35683
345 3.99336
350 4.77571
355 5.8756
360 7.54799
365 9.72835
370 14.8319
375 24.1892
380 719.052
385 9999.9
390 9999.9
395 4850.92
400 592.687
405 89.6767
410 25.6699
415 14.9319
420 11.1697
425 8.90498
430 8.04997
435 8.54042
440 9.85663
445 10.0639
450 9.22889
455 7.44776
460 6.17489
465 5.64394
470 5.09129
475 4.70504
480 4.44167
485 4.43848
490 3.95608
495 3.60228
500 3.5256
505 3.5477
510 3.14505
515 2.95984
520 2.92034
525 2.91202
530 2.74455
535 2.65612
540 2.54109
545 2.45561
550 2.42031
555 2.31081
560 2.10722
565 2.17001
570 2.02978
575 2.14071
580 1.76591
585 1.85249
590 1.79382
595 1.66073
600 1.21243
Ex : 398
200 0.939282
205 0.963927
210 0.908736
215 0.972986
220 0.98387
225 0.940921
230 0.914549
235 0.954155
240 1.00427
245 1.05626
250 1.01773
255 1.20363
260 1.18504
265 1.25673
270 1.20242
275 1.23229
280 1.31558
285 1.43394
290 1.40779
295 1.5826
300 1.64079
305 1.65357
310 1.86374
315 2.00109
320 2.18683
325 2.24234
330 2.54398
335 2.84153
340 3.23471
345 3.44452
350 4.19944
355 4.75718
360 5.85994
365 7.68576
370 10.4168
375 14.8848
380 24.5438
385 762.157
390 9999.9
395 9999.9
400 5037.31
405 614.032
410 91.9125
415 25.8442
420 14.9338
425 11.3998
430 8.93639
435 7.94811
440 7.96738
445 9.31997
450 9.89826
455 9.23624
460 7.94015
465 6.3074
470 5.49735
475 4.8374
480 4.57269
485 4.42799
490 4.07261
495 3.96433
500 3.66003
505 3.39786
510 3.34186
515 3.08275
520 2.92846
525 2.82654
530 2.62661
535 2.63672
540 2.51865
545 2.4914
550 2.36133
555 2.30054
560 2.14773
565 2.06757
570 1.93144
575 1.86154
580 1.8417
585 1.83511
590 1.77298
595 1.67373
600 1.75068
Ex : 403
200 0.834978
205 0.872619
210 0.961531
215 0.953464
220 1.00472
225 0.912606
230 0.967048
235 1.0207
240 1.12631
245 1.02379
250 1.03538
255 1.10735
260 1.14766
265 1.12312
270 1.13186
275 1.23921
280 1.24565
285 1.31339
290 1.31552
295 1.41039
300 1.59447
305 1.59826
310 1.75712
315 1.89603
320 2.04308
325 2.27902
330 2.53859
335 2.64113
340 2.89449
345 3.17236
350 3.75903
355 4.25731
360 4.94752
365 6.09543
370 7.83659
375 10.1125
380 15.3012
385 25.8674
390 832.751
395 9999.9
400 9999.9
405 5122.43
410 623.18
415 92.8029
420 25.8217
425 14.7031
430 11.3306
435 8.90012
440 7.79671
445 7.74106
450 9.05361
455 9.72794
460 9.11294
465 8.23356
470 6.56467
475 5.29496
480 4.78713
485 4.39784
490 4.24716
495 3.80714
500 3.6122
505 3.43789
510 3.39519
515 3.21676
520 3.12514
525 2.9136
530 2.70078
535 2.67471
540 2.67272
545 2.60868
550 2.36366
555 2.41302
560 2.21399
565 2.22237
570 2.08353
575 1.87117
580 1.87392
585 1.75628
590 1.7413
595 1.741
600 1.54475
Ex : 408
200 0.848563
205 0.888743
210 0.950811
215 0.846284
220 0.833381
225 0.946117
230 1.01463
235 0.838605
240 0.996961
245 0.966871
250 1.01757
255 1.0967
260 1.11859
265 1.03868
270 1.07208
275 1.2347
280 1.38625
285 1.32647
290 1.32216
295 1.43334
300 1.36842
305 1.48852
310 1.65102
315 1.73666
320 1.96816
325 2.21453
330 2.13147
335 2.38176
340 2.73127
345 2.97967
350 3.34601
355 3.67354
360 4.24346
365 5.15065
370 6.23863
375 7.91058
380 10.7263
385 16.072
390 27.3168
395 836.021
400 9999.9
405 9999.9
410 5017.19
415 612.166
420 91.9207
425 25.755
430 15.1476
435 11.3574
440 8.83623
445 7.87915
450 7.57382
455 8.70391
460 9.71309
465 9.2065
470 8.37909
475 6.90299
480 5.38651
485 4.63113
490 4.18088
495 3.87557
500 3.76574
505 3.61203
510 3.35011
515 3.27803
520 3.1529
525 2.89629
530 2.74822
535 2.67775
540 2.57334
545 2.51426
550 2.39243
555 2.22436
560 2.24002
565 2.15885
570 2.04107
575 1.87443
580 1.8386
585 1.70936
590 1.69923
595 1.55092
600 2.02458
Ex : 413
200 0.841243
205 0.821251
210 0.829797
215 0.846619
220 0.973097
225 0.949814
230 0.868451
235 0.898398
240 0.952124
245 1.01151
250 1.09525
255 1.07021
260 1.06675
265 1.10281
270 1.08416
275 1.15901
280 1.20677
285 1.15728
290 1.31813
295 1.34937
300 1.43
305 1.49936
310 1.62565
315 1.81596
320 1.85247
325 1.98626
330 2.15323
335 2.26889
340 2.45542
345 2.74453
350 3.14023
355 3.34704
360 3.8948
365 4.38977
370 5.13816
375 6.45542
380 8.38548
385 11.4391
390 16.9983
395 27.6813
400 941.81
405 9999.9
410 9999.9
415 4883.29
420 593.607
425 89.0327
430 24.6249
435 14.8252
440 11.4733
445 8.76268
450 7.93918
455 7.20917
460 8.04723
465 9.13308
470 8.78127
475 7.96791
480 6.85739
485 5.10075
490 4.51926
495 4.15158
500 3.92361
505 3.79517
510 3.40588
515 3.26781
520 3.07406
525 2.82883
530 2.71043
535 2.57328
540 2.57723
545 2.6104
550 2.53033
555 2.34101
560 2.18381
565 2.17656
570 1.97427
575 1.81517
580 1.8167
585 1.6416
590 1.58288
595 1.58701
600 1.00676
Ex : 418
200 0.806958
205 0.830227
210 0.812535
215 0.867755
220 0.884898
225 0.911983
230 0.897378
235 0.879117
240 1.00034
245 1.00975
250 1.00793
255 1.18166
260 1.14538
265 1.11029
270 1.10626
275 1.17215
280 1.14357
285 1.24602
290 1.42254
295 1.30934
300 1.34736
305 1.59504
310 1.59248
315 1.66363
320 1.78411
325 1.78686
330 1.95003
335 2.21596
340 2.3258
345 2.50205
350 2.71549
355 2.97897
360 3.45194
365 4.08345
370 4.54432
375 5.3179
380 6.60334
385 8.42823
390 11.7684
395 17.272
400 27.9317
405 891.594
410 9999.9
415 9999.9
420 5210.05
425 632.847
430 94.0828
435 25.9767
440 15.3123
445 11.6005
450 8.93502
455 7.69285
460 7.66266
465 8.02958
470 8.54407
475 8.49488
480 7.90365
485 7.09958
490 5.33946
495 4.38622
500 4.05919
505 3.65692
510 3.51627
515 3.14028
520 3.09621
525 3.12984
530 2.87206
535 2.69477
540 2.6902
545 2.61933
550 2.35596
555 2.33253
560 2.23306
565 2.19745
570 2.04584
575 1.99208
580 1.76963
585 1.75455
590 1.5673
595 1.45122
600 2.00701
Ex : 423
200 0.808337
205 0.854078
210 0.891543
215 0.853802
220 0.934022
225 0.873045
230 0.878585
235 0.85845
240 0.896694
245 0.887563
250 0.965401
255 1.02118
260 1.01392
265 1.06328
270 1.07652
275 1.19723
280 1.14299
285 1.16476
290 1.25657
295 1.24485
300 1.35262
305 1.48219
310 1.50202
315 1.4527
320 1.61403
325 1.7333
330 1.90541
335 2.12597
340 2.14914
345 2.40393
350 2.56394
355 2.79632
360 3.13974
365 3.5153
370 3.91208
375 4.93232
380 5.57773
385 6.76698
390 8.96243
395 12.2916
400 17.6065
405 28.7857
410 933.521
415 9999.9
420 9999.9
425 4958.13
430 603.701
435 90.8151
440 25.6149
445 15.429
450 11.8297
455 9.31742
460 7.95061
465 7.81617
470 7.23985
475 8.03324
480 8.22099
485 7.68544
490 6.96453
495 5.55679
500 4.63838
505 3.95809
510 3.49808
515 3.352
520 3.21116
525 3.15838
530 2.89406
535 2.67634
540 2.75768
545 2.50979
550 2.47751
555 2.28921
560 2.07744
565 2.18199
570 2.05829
575 1.7795
580 1.73927
585 1.72936
590 1.55558
595 1.57311
600 2.80896
Ex : 428
200 0.882562
205 0.928349
210 0.840369
215 0.806346
220 0.878656
225 0.839635
230 0.807893
235 0.839877
240 0.928299
245 0.890096
250 0.971769
255 1.05487
260 1.08277
265 1.07114
270 1.03489
275 1.04175
280 1.14169
285 1.10639
290 1.28549
295 1.24501
300 1.36137
305 1.37771
310 1.46262
315 1.52327
320 1.63002
325 1.76886
330 1.9227
335 2.06069
340 2.11838
345 2.30043
350 2.43566
355 2.78418
360 2.99402
365 3.19763
370 3.48989
375 4.14726
380 4.78121
385 6.02079
390 7.50968
395 9.19992
400 12.2904
405 18.2895
410 30.5061
415 1029.36
420 9999.9
425 9999.9
430 5273.34
435 641.3
440 95.6338
445 27.1023
450 16.1621
455 12.0984
460 9.3802
465 8.48683
470 7.6576
475 6.89102
480 7.48537
485 8.10037
490 7.46047
495 7.06505
500 5.89208
505 4.52441
510 3.93363
515 3.59679
520 3.28026
525 3.20749
530 2.84425
535 2.76125
540 2.80766
545 2.55238
550 2.41903
555 2.28524
560 2.21532
565 2.05328
570 1.95619
575 1.90847
580 1.79068
585 1.7487
590 1.52119
595 1.55583
600 1.30203
Ex : 433
200 0.855349
205 0.848613
210 0.898755
215 0.84477
220 0.846896
225 0.957716
230 0.844203
235 0.916428
240 1.05385
245 0.990959
250 1.00936
255 1.07993
260 0.91742
265 1.0481
270 1.13965
275 1.09712
280 1.2334
285 1.31488
290 1.22736
295 1.22873
300 1.30368
305 1.33421
310 1.41425
315 1.53688
320 1.59911
325 1.8302
330 1.81246
335 1.90072
340 2.11517
345 2.28756
350 2.44288
355 2.5097
360 2.80894
365 3.08294
370 3.37153
375 3.73945
380 4.26649
385 5.04315
390 5.99649
395 7.30431
400 9.45982
405 12.911
410 18.9601
415 31.4975
420 1139.61
425 9999.9
430 9999.9
435 5066.42
440 615.961
445 94.1324
450 27.3839
455 16.6398
460 12.6004
465 10.0216
470 8.0917
475 7.21097
480 7.23
485 6.90438
490 7.92677
495 7.32573
500 6.78613
505 6.04213
510 4.6526
515 4.0641
520 3.54398
525 3.30416
530 3.10477
535 2.94562
540 2.67993
545 2.72666
550 2.49873
555 2.49035
560 2.36871
565 2.19937
570 2.09667
575 1.86996
580 1.74381
585 1.72264
590 1.67701
595 1.55212
600 1.3491
Ex : 438
200 0.88955
205 0.841183
210 0.834506
215 0.847082
220 0.88708
225 0.909852
230 0.941947
235 0.896064
240 0.935441
245 0.862796
250 1.03738
255 0.985666
260 1.00324
265 1.02034
270 1.15735
275 1.06556
280 1.18624
285 1.27606
290 1.28061
295 1.2921
300 1.3216
305 1.37777
310 1.43605
315 1.54999
320 1.61382
325 1.60561
330 1.82319
335 1.86324
340 2.03494
345 2.16177
350 2.36904
355 2.50129
360 2.55949
365 2.95364
370 3.15981
375 3.44166
380 3.71685
385 4.50036
390 5.28638
395 6.26861
400 7.92771
405 9.57047
410 13.1884
415 19.3143
420 31.5975
425 1088.11
430 9999.9
435 9999.9
440 5298.29
445 645.543
450 97.9141
455 28.1943
460 17.1051
465 13.2952
470 9.54764
475 7.91515
480 7.17994
485 6.83594
490 6.93606
495 7.16372
500 7.20996
505 6.54748
510 5.8332
515 4.86035
520 3.90267
525 3.40935
530 3.14777
535 2.95713
540 2.91478
545 2.794
550 2.75392
555 2.44884
560 2.27273
565 2.16944
570 2.05018
575 2.01673
580 1.81748
585 1.65768
590 1.61968
595 1.55091
600 1.68752
Ex : 443
200 0.950456
205 0.887339
210 0.941459
215 0.901954
220 0.963738
225 0.884165
230 0.875814
235 0.94944
240 1.04117
245 0.937331
250 1.00757
255 1.05401
260 1.08678
265 1.05941
270 1.07635
275 1.11095
280 1.23859
285 1.2709
290 1.2922
295 1.3022
300 1.31455
305 1.38104
310 1.45214
315 1.46224
320 1.59081
325 1.703
330 1.87311
335 1.79183
340 2.10516
345 2.16877
350 2.10818
355 2.40856
360 2.53422
365 2.67422
370 3.25136
375 3.39445
380 3.60118
385 3.90203
390 4.54836
395 5.26382
400 6.41348
405 7.74692
410 9.86499
415 13.7156
420 19.9876
425 32.0745
430 1187.69
435 9999.9
440 9999.9
445 5301.46
450 646.059
455 98.5128
460 28.9874
465 18.1277
470 13.1931
475 9.63235
480 7.8617
485 7.0436
490 6.77218
495 6.33244
500 6.92693
505 7.14974
510 6.48778
515 5.96698
520 5.20833
525 4.20435
530 3.54559
535 3.02821
540 2.90514
545 2.77902
550 2.60435
555 2.57975
560 2.38184
565 2.31674
570 2.10714
575 2.11555
580 1.94255
585 1.88335
590 1.79495
595 1.53789
600 1.243
Ex : 448
200 0.933284
205 0.866708
210 0.940325
215 1.0181
220 1.02316
225 1.01717
230 1.05979
235 0.978439
240 0.919905
245 0.980714
250 1.03664
255 0.941264
260 1.10935
265 1.04227
270 1.02999
275 1.10087
280 1.21921
285 1.20975
290 1.26785
295 1.25662
300 1.36592
305 1.52473
310 1.42358
315 1.4511
320 1.69465
325 1.70708
330 1.75403
335 1.84136
340 1.98916
345 2.04918
350 2.23926
355 2.41218
360 2.52781
365 2.83898
370 2.87254
375 3.15494
380 3.6851
385 3.91838
390 4.24553
395 4.7566
400 5.56451
405 6.40318
410 7.99899
415 10.2156
420 13.8991
425 20.1369
430 32.8565
435 1244.12
440 9999.9
445 9999.9
450 5421.54
455 660.406
460 101.346
465 30.5687
470 17.9755
475 12.781
480 9.21775
485 7.82238
490 7.14553
495 6.76882
500 6.18458
505 6.35481
510 7.10686
515 6.27535
520 5.66094
525 5.27991
530 4.25075
535 3.41947
540 3.27107
545 2.94534
550 2.84522
555 2.64983
560 2.39508
565 2.29883
570 2.23933
575 1.96546
580 2.09028
585 1.96916
590 1.65856
595 1.67569
600 1.68772
Ex : 453
200 1.01547
205 0.916713
210 0.906978
215 1.01721
220 0.914299
225 0.92858
230 0.975406
235 1.01826
240 1.00075
245 1.02015
250 0.999596
255 1.0917
260 1.09336
265 1.14647
270 1.10839
275 1.12277
280 1.12527
285 1.13452
290 1.18514
295 1.33964
300 1.47179
305 1.4786
310 1.48337
315 1.37915
320 1.53358
325 1.64734
330 1.64497
335 1.75194
340 2.03076
345 2.06471
350 2.261
355 2.23052
360 2.69004
365 2.51723
370 2.65255
375 2.97441
380 3.18258
385 3.45429
390 3.91158
395 4.36504
400 5.0055
405 5.60215
410 6.35488
415 7.84693
420 10.3323
425 13.7349
430 19.7304
435 32.3497
440 1303.57
445 9999.9
450 9999.9
455 5162.69
460 631.487
465 98.2479
470 29.0096
475 16.4513
480 11.8157
485 8.85702
490 7.75523
495 6.83839
500 6.78544
505 6.25294
510 6.06044
515 6.50087
520 6.2559
525 5.66502
530 5.20914
535 4.37961
540 3.56237
545 3.07819
550 3.02421
555 2.69039
560 2.58277
565 2.35166
570 2.35204
575 2.12562
580 2.01027
585 1.81927
590 1.76611
595 1.70637
600 2.34328
Ex : 458
200 1.01394
205 0.988938
210 0.918112
215 1.00358
220 0.999509
225 0.960344
230 1.01313
235 1.01669
240 0.956609
245 0.971908
250 1.06167
255 1.04648
260 1.16486
265 1.13459
270 1.13026
275 1.10752
280 1.22832
285 1.23383
290 1.21429
295 1.39545
300 1.38264
305 1.37343
310 1.56302
315 1.41454
320 1.49623
325 1.67024
330 1.78232
335 1.77401
340 1.88294
345 1.91324
350 2.28001
355 2.30955
360 2.27563
365 2.55161
370 2.88833
375 2.94282
380 3.20939
385 3.39959
390 3.89604
395 4.21411
400 4.54653
405 5.05022
410 5.78934
415 6.91431
420 8.30322
425 10.2266
430 13.604
435 20.4657
440 33.4349
445 1438.35
450 9999.9
455 9999.9
460 5560.61
465 679.985
470 104.081
475 29.6755
480 16.9115
485 12.0773
490 9.09211
495 7.56506
500 6.84812
505 6.61447
510 6.11884
515 5.71418
520 6.31704
525 6.05586
530 5.40177
535 4.95164
540 4.60075
545 3.84888
550 3.29186
555 2.786
560 2.73985
565 2.60572
570 2.402
575 2.26746
580 2.15366
585 1.93712
590 1.91488
595 1.80305
600 2.43321
Ex : 463
200 0.999806
205 1.01224
210 0.944376
215 1.05825
220 0.932284
225 1.03264
230 1.07719
235 1.03009
240 1.055
245 1.07971
250 1.083
255 1.02386
260 1.0661
265 1.07409
270 1.1588
275 1.22025
280 1.18351
285 1.1827
290 1.19846
295 1.30017
300 1.39512
305 1.44762
310 1.54058
315 1.64126
320 1.57269
325 1.66568
330 1.73073
335 1.81638
340 1.92191
345 1.88301
350 2.16402
355 2.0615
360 2.26007
365 2.55573
370 2.5885
375 2.90241
380 2.9416
385 3.1279
390 3.60043
395 4.02539
400 4.2057
405 4.6971
410 5.03359
415 5.8599
420 6.80346
425 8.34003
430 10.5869
435 14.2019
440 20.2469
445 34.5259
450 1409.03
455 9999.9
460 9999.9
465 5718.56
470 696.716
475 104.137
480 29.2961
485 16.4701
490 12.3093
495 8.87472
500 7.21749
505 6.83304
510 6.45745
515 5.80198
520 5.64951
525 5.90047
530 5.79425
535 5.28873
540 4.92161
545 4.7543
550 3.96121
555 3.12543
560 2.86242
565 2.59192
570 2.30541
575 2.26063
580 2.26901
585 2.03529
590 1.92724
595 1.76191
600 1.45515
Ex : 468
200 0.899632
205 0.975553
210 0.958242
215 1.03587
220 0.947758
225 1.08008
230 1.17192
235 1.04089
240 1.07423
245 1.06964
250 1.03173
255 1.08977
260 1.12946
265 1.20954
270 1.15636
275 1.11407
280 1.15863
285 1.27531
290 1.22661
295 1.32595
300 1.36937
305 1.42603
310 1.4792
315 1.53346
320 1.5696
325 1.62045
330 1.51319
335 1.70847
340 1.78636
345 1.92721
350 1.99338
355 2.00091
360 2.23822
365 2.33963
370 2.60182
375 2.7829
380 2.92832
385 3.05473
390 3.43188
395 3.4901
400 3.76481
405 4.14742
410 4.56409
415 5.03018
420 5.89978
425 6.785
430 7.96148
435 10.2992
440 13.8461
445 20.5984
450 34.1501
455 1532.77
460 9999.9
465 9999.9
470 5839.89
475 705.916
480 104.035
485 28.3382
490 15.9337
495 11.5205
500 8.65471
505 7.16377
510 6.34201
515 6.27274
520 5.85804
525 5.26181
530 5.51327
535 5.59038
540 5.31351
545 4.73497
550 4.65717
555 4.03265
560 3.28547
565 2.75388
570 2.62547
575 2.35779
580 2.26473
585 2.08495
590 2.06903
595 1.80567
600 1.71605
Ex : 473
200 0.93189
205 1.03465
210 0.969509
215 1.02032
220 1.1189
225 1.03401
230 1.24734
235 1.19592
240 1.06881
245 1.13456
250 1.08867
255 1.0591
260 1.20708
265 1.20872
270 1.17951
275 1.17787
280 1.12614
285 1.28641
290 1.31092
295 1.29587
300 1.41092
305 1.36609
310 1.55994
315 1.55867
320 1.52759
325 1.77853
330 1.77002
335 1.87736
340 1.87458
345 2.00222
350 1.98573
355 1.97677
360 2.22548
365 2.40969
370 2.54535
375 2.62921
380 3.01803
385 3.18243
390 3.2101
395 3.48756
400 3.75919
405 4.03033
410 4.31384
415 4.7522
420 5.15643
425 5.81092
430 6.79378
435 8.18214
440 10.5137
445 14.4713
450 21.1819
455 36.3379
460 1625.27
465 9999.9
470 9999.9
475 5624.06
480 681.607
485 100.947
490 28.1654
495 15.7595
500 11.5542
505 8.63699
510 6.92076
515 6.63821
520 6.04349
525 5.8736
530 5.58684
535 4.88459
540 5.36661
545 5.4094
550 4.6296
555 4.45058
560 4.16199
565 3.31737
570 2.83106
575 2.54095
580 2.28553
585 2.24234
590 1.99121
595 1.90685
600 1.73293
Ex : 478
200 1.00481
205 1.07713
210 1.07809
215 1.04845
220 1.06203
225 1.13063
230 1.27683
235 1.59633
240 1.09904
245 1.10642
250 1.20068
255 1.15011
260 1.11073
265 1.21641
270 1.20451
275 1.22408
280 1.24866
285 1.44536
290 1.33003
295 1.34519
300 1.38632
305 1.54916
310 1.65152
315 1.70013
320 1.72272
325 1.75973
330 1.79685
335 1.85312
340 1.9068
345 1.91037
350 2.07988
355 2.1405
360 2.20514
365 2.22624
370 2.44402
375 2.58538
380 2.8914
385 2.94099
390 3.28373
395 3.41361
400 3.66367
405 4.05651
410 4.31247
415 4.64565
420 5.10777
425 5.59354
430 6.62232
435 7.37958
440 9.13361
445 11.8936
450 16.7358
455 25.4543
460 42.7637
465 1873.38
470 9999.9
475 9999.9
480 5865.68
485 711.664
490 106.612
495 29.1283
500 16.7239
505 12.1264
510 8.81663
515 7.22201
520 6.72325
525 6.24116
530 6.17606
535 5.48158
540 5.15799
545 5.30876
550 5.38407
555 4.92854
560 4.36943
565 3.84005
570 3.42533
575 2.78067
580 2.52138
585 2.32569
590 2.10182
595 2.1624
600 1.8369
Ex : 483
200 1.10028
205 1.0591
210 1.05624
215 1.14181
220 1.13258
225 1.07323
230 1.13424
235 1.89277
240 1.59584
245 1.23274
250 1.14702
255 1.17868
260 1.22581
265 1.22368
270 1.20015
275 1.13519
280 1.29988
285 1.24523
290 1.25668
295 1.33821
300 1.35711
305 1.34619
310 1.49237
315 1.56345
320 1.64384
325 1.83057
330 1.76327
335 1.85824
340 1.9655
345 1.8514
350 1.77819
355 2.06839
360 2.30236
365 2.24921
370 2.44936
375 2.489
380 2.75716
385 2.97551
390 3.36728
395 3.43662
400 3.71141
405 3.91599
410 4.10457
415 4.5542
420 4.8335
425 5.26655
430 5.59859
435 6.50141
440 7.96498
445 10.0512
450 12.3315
455 16.8473
460 25.9346
465 44.7299
470 1516.39
475 9999.9
480 9999.9
485 6252.35
490 756.088
495 111.49
500 29.9893
505 16.661
510 11.9574
515 9.04352
520 7.63343
525 6.96535
530 6.43426
535 6.09768
540 5.57547
545 5.16175
550 5.0346
555 4.89119
560 4.81733
565 4.28256
570 3.83082
575 3.50539
580 2.88341
585 2.56614
590 2.2997
595 2.28954
600 2.62282
Ex : 488
200 1.11856
205 1.03613
210 1.12903
215 1.14017
220 1.08073
225 1.1901
230 1.20292
235 1.64134
240 2.19063
245 1.30391
250 1.1249
255 1.15669
260 1.25475
265 1.15821
270 1.12022
275 1.23867
280 1.20211
285 1.26932
290 1.31211
295 1.24072
300 1.37097
305 1.43504
310 1.46118
315 1.50105
320 1.5306
325 1.65513
330 1.886
335 1.83158
340 1.90124
345 1.885
350 2.03101
355 2.1736
360 2.30694
365 2.35713
370 2.32128
375 2.75401
380 2.78766
385 2.88238
390 3.18161
395 3.36312
400 3.61684
405 3.77859
410 3.90093
415 4.39633
420 4.64367
425 5.00827
430 5.65201
435 6.2369
440 7.2289
445 8.41451
450 10.7078
455 13.4776
460 19.2178
465 29.287
470 45.5905
475 1805.44
480 9999.9
485 9999.9
490 5963.56
495 723.244
500 108.687
505 30.186
510 17.163
515 12.4341
520 9.42482
525 7.74533
530 6.77603
535 6.63921
540 6.28931
545 5.67932
550 5.42128
555 4.79747
560 4.7016
565 4.7831
570 4.05757
575 3.64052
580 3.24131
585 2.77662
590 2.45148
595 2.28274
600 2.26442
Ex : 493
200 0.989309
205 1.08098
210 1.02806
215 1.0442
220 1.24829
225 1.06117
230 1.10573
235 1.16908
240 2.50623
245 1.96278
250 1.26034
255 1.23875
260 1.22313
265 1.20903
270 1.26633
275 1.21918
280 1.19215
285 1.18358
290 1.36514
295 1.27507
300 1.3983
305 1.537
310 1.45465
315 1.51774
320 1.65903
325 1.74542
330 1.71216
335 1.82901
340 1.91375
345 2.04114
350 2.063
355 2.01575
360 2.1073
365 2.24664
370 2.39189
375 2.47914
380 2.44699
385 2.96724
390 3.25523
395 3.14081
400 3.51941
405 3.52147
410 3.98213
415 4.0313
420 4.55155
425 4.68871
430 5.08754
435 5.69824
440 6.45862
445 7.33547
450 8.73081
455 10.4418
460 14.4407
465 20.56
470 28.1264
475 43.7838
480 1749.2
485 9999.9
490 9999.9
495 6171.12
500 746.786
505 111.275
510 29.9343
515 17.2764
520 12.3332
525 9.4486
530 7.88812
535 7.0808
540 6.92852
545 6.33548
550 5.67643
555 5.03445
560 4.99564
565 4.6143
570 4.30803
575 3.88601
580 3.19101
585 3.15158
590 2.86154
595 2.50368
600 1.84734
Ex : 498
200 1.1553
205 1.01662
210 1.16157
215 0.981612
220 1.09805
225 1.20177
230 1.21236
235 1.19948
240 1.90045
245 2.87844
250 1.33009
255 1.14831
260 1.21332
265 1.25208
270 1.25609
275 1.27115
280 1.25904
285 1.29653
290 1.20363
295 1.31637
300 1.26623
305 1.45175
310 1.56523
315 1.50783
320 1.63381
325 1.62507
330 1.66456
335 1.72446
340 1.81431
345 2.03629
350 2.04436
355 2.20584
360 2.06333
365 2.25228
370 2.40931
375 2.55847
380 2.58578
385 2.85189
390 2.98033
395 3.40929
400 3.47795
405 3.63189
410 3.73866
415 4.18204
420 4.52547
425 4.62352
430 4.76528
435 5.47801
440 6.12936
445 6.98935
450 7.86552
455 9.28704
460 11.7048
465 15.8908
470 20.7916
475 28.477
480 46.9634
485 2063.13
490 9999.9
495 9999.9
500 6064.89
505 735.479
510 110.379
515 30.6262
520 17.6827
525 12.6219
530 9.50801
535 7.87292
540 7.21642
545 6.38956
550 6.27939
555 5.77473
560 5.27781
565 4.72279
570 4.54767
575 4.36429
580 4.04775
585 3.27993
590 3.00149
595 2.88634
600 2.74445
Ex : 503
200 1.00305
205 0.943391
210 1.02757
215 1.0267
220 1.14502
225 1.08975
230 1.26904
235 1.12772
240 1.31613
245 2.7708
250 2.16611
255 1.36073
260 1.20733
265 1.28664
270 1.23348
275 1.32474
280 1.43171
285 1.41791
290 1.38756
295 1.46724
300 1.58178
305 1.4167
310 1.37933
315 1.50144
320 1.50364
325 1.59522
330 1.72303
335 1.86952
340 1.91364
345 1.96682
350 1.93322
355 2.17554
360 2.14419
365 2.08475
370 2.2225
375 2.35507
380 2.72872
385 2.67164
390 2.97322
395 3.15486
400 3.15025
405 3.69251
410 3.70977
415 4.04128
420 4.20407
425 4.56082
430 4.88142
435 5.18344
440 5.53909
445 6.40636
450 7.2019
455 8.41457
460 9.83541
465 13.0172
470 16.2243
475 20.3518
480 29.7917
485 47.0048
490 1972.32
495 9999.9
500 9999.9
505 6220.25
510 754.75
515 113.855
520 31.4607
525 17.6655
530 12.8945
535 9.48499
540 7.75734
545 7.33171
550 6.93767
555 6.10593
560 5.74629
565 5.06414
570 4.5764
575 4.11337
580 3.70204
585 3.58444
590 3.3015
595 2.68843
600 3.92015
Ex : 508
200 0.983963
205 0.982936
210 1.09247
215 1.03952
220 0.942335
225 1.11421
230 1.15871
235 1.10715
240 1.05849
245 2.05854
250 3.81566
255 1.78094
260 1.22712
265 1.2046
270 1.28616
275 1.13157
280 1.26996
285 1.2749
290 1.44334
295 1.35775
300 1.3878
305 1.46651
310 1.38437
315 1.54584
320 1.51113
325 1.54707
330 1.59288
335 1.81226
340 1.88622
345 1.85284
350 1.99493
355 2.14166
360 2.24454
365 2.27393
370 2.21603
375 2.42481
380 2.67428
385 2.78732
390 2.62221
395 3.01399
400 3.12296
405 3.2129
410 3.5858
415 3.63539
420 3.96965
425 4.26623
430 4.35337
435 4.715
440 5.14905
445 6.04862
450 6.76231
455 7.24671
460 8.58611
465 10.9466
470 12.8144
475 15.5526
480 21.1613
485 29.7115
490 48.5644
495 2069.14
500 9999.9
505 9999.9
510 6784.9
515 819.469
520 120.71
525 32.1281
530 17.5449
535 12.4322
540 9.32054
545 7.98255
550 6.87469
555 6.65705
560 6.14607
565 5.75775
570 5.14975
575 4.60534
580 4.06492
585 3.717
590 3.5412
595 3.33496
600 3.01559
Ex : 513
200 0.938701
205 1.09316
210 1.11433
215 1.21399
220 1.1017
225 1.0684
230 1.03219
235 1.13714
240 1.19485
245 1.25423
250 6.27124
255 4.69339
260 1.68701
265 1.22272
270 1.23877
275 1.20945
280 1.51912
285 1.29558
290 1.40861
295 1.24151
300 1.41096
305 1.58003
310 1.58094
315 1.55954
320 1.46199
325 1.54206
330 1.57726
335 1.83424
340 1.76616
345 1.84351
350 2.12555
355 2.25863
360 2.13714
365 2.19908
370 2.24734
375 2.44434
380 2.46179
385 2.6696
390 2.8212
395 2.9149
400 3.10291
405 3.23101
410 3.5508
415 3.48549
420 3.86974
425 4.06218
430 4.26
435 4.64598
440 4.83542
445 5.55178
450 6.18776
455 6.98483
460 8.0463
465 9.35712
470 10.2796
475 12.0371
480 15.8272
485 20.1587
490 29.6358
495 46.2493
500 1911.41
505 9999.9
510 9999.9
515 7028.54
520 849.595
525 123.833
530 32.6367
535 17.382
540 12.4961
545 9.23806
550 7.86495
555 6.98717
560 6.51217
565 5.97124
570 5.73886
575 5.05076
580 4.41838
585 3.7807
590 3.68102
595 3.5001
600 4.95034
Ex : 518
200 1.02113
205 1.11052
210 0.990272
215 1.16735
220 1.06578
225 1.07113
230 1.16174
235 1.16061
240 1.21775
245 1.11045
250 4.48323
255 12.0439
260 3.48689
265 1.59139
270 1.22088
275 1.2591
280 1.29626
285 1.32973
290 1.43232
295 1.26288
300 1.52897
305 1.47605
310 1.57047
315 1.41614
320 1.638
325 1.66827
330 1.63014
335 1.61438
340 1.81231
345 1.88968
350 1.89945
355 2.02162
360 2.19143
365 2.13179
370 2.25143
375 2.29189
380 2.34483
385 2.40033
390 2.7957
395 2.78942
400 2.8961
405 3.06512
410 3.61333
415 3.50283
420 3.79891
425 3.95874
430 4.22981
435 4.27347
440 4.56412
445 5.12636
450 5.69072
455 6.19042
460 7.1469
465 8.18415
470 8.79251
475 9.95168
480 12.1718
485 15.4751
490 21.3428
495 29.6749
500 45.5249
505 1898.64
510 9999.9
515 9999.9
520 7018.05
525 846.947
530 123.543
535 32.8697
540 18.0111
545 12.6221
550 9.3341
555 7.62071
560 7.02705
565 6.63635
570 6.08461
575 5.30608
580 4.7176
585 4.36158
590 3.80823
595 3.60555
600 2.82207
Ex : 523
200 1.0289
205 1.04764
210 1.15554
215 1.1643
220 1.05193
225 1.15369
230 1.04978
235 1.07171
240 1.00746
245 1.06444
250 1.81218
255 14.4426
260 10.8898
265 2.44661
270 1.40452
275 1.3898
280 1.45571
285 1.38718
290 1.34832
295 1.28065
300 1.26884
305 1.42312
310 1.45805
315 1.44714
320 1.60916
325 1.67106
330 1.62291
335 1.60263
340 1.80369
345 1.91055
350 1.82389
355 1.90834
360 2.02681
365 2.13684
370 2.34033
375 2.29509
380 2.35373
385 2.37149
390 2.33042
395 2.76584
400 2.8283
405 2.9095
410 3.00509
415 3.49728
420 3.62514
425 3.84308
430 4.02841
435 4.36098
440 4.50176
445 4.78904
450 5.139
455 5.92678
460 6.68869
465 7.56104
470 8.10544
475 8.85653
480 10.096
485 12.3703
490 15.9952
495 21.4567
500 28.5143
505 46.6046
510 1779.73
515 9999.9
520 9999.9
525 7307.44
530 880.458
535 127.319
540 32.9413
545 18.1642
550 12.7875
555 8.93487
560 7.84716
565 7.13538
570 6.34207
575 5.9352
580 5.14967
585 4.63649
590 4.18605
595 3.79341
600 3.42629
Ex : 528
200 0.970493
205 1.21466
210 1.00349
215 0.985563
220 1.11616
225 1.10066
230 1.1017
235 1.04777
240 1.15449
245 1.14848
250 1.12987
255 8.07563
260 23.9122
265 5.86899
270 1.78576
275 1.35226
280 1.4749
285 1.44004
290 1.44908
295 1.44586
300 1.48875
305 1.4626
310 1.51261
315 1.61237
320 1.55479
325 1.66824
330 1.62
335 1.55397
340 1.76416
345 1.69792
350 1.85584
355 1.85634
360 1.84359
365 1.94711
370 2.08683
375 2.24292
380 2.385
385 2.42939
390 2.5956
395 2.55203
400 2.69734
405 2.87663
410 3.11931
415 3.20292
420 3.66593
425 3.80869
430 3.68863
435 4.20015
440 4.34874
445 4.63249
450 5.00836
455 5.63567
460 6.14732
465 7.13151
470 7.53392
475 7.87527
480 8.48201
485 10.2004
490 12.4826
495 15.4133
500 20.3327
505 29.4526
510 45.5427
515 1670.21
520 9999.9
525 9999.9
530 7306.04
535 882.561
540 127.967
545 32.3406
550 17.8931
555 12.8298
560 9.03336
565 7.62114
570 6.90636
575 6.32013
580 6.0089
585 5.53719
590 4.53559
595 4.08876
600 2.93964
Ex : 533
200 1.06137
205 1.06368
210 1.09112
215 1.17396
220 1.09633
225 1.09878
230 1.15009
235 1.10655
240 1.13534
245 1.25504
250 1.18767
255 2.24818
260 27.9453
265 21.5658
270 3.99901
275 1.62133
280 1.35255
285 1.63085
290 1.60998
295 1.42863
300 1.37288
305 1.46932
310 1.51057
315 1.65184
320 1.6211
325 1.56659
330 1.63064
335 1.70237
340 1.73764
345 1.68947
350 1.69149
355 2.01231
360 1.9084
365 1.98527
370 2.00713
375 2.24803
380 2.3491
385 2.43771
390 2.43856
395 2.72989
400 2.6681
405 3.03427
410 3.20862
415 3.08165
420 3.25135
425 3.54551
430 3.5993
435 3.86351
440 4.28856
445 4.47647
450 4.85261
455 5.24144
460 5.81952
465 6.52043
470 6.91771
475 7.05185
480 7.98382
485 9.05664
490 9.949
495 12.1757
500 15.5727
505 20.3483
510 28.1155
515 44.3454
520 1698.49
525 9999.9
530 9999.9
535 7570.03
540 911.01
545 130.764
550 33.145
555 17.581
560 12.6241
565 9.26693
570 7.42152
575 6.58751
580 6.30483
585 5.56565
590 4.95265
595 4.45787
600 4.66081
Ex : 538
200 1.08034
205 1.06105
210 1.07119
215 0.920603
220 1.10475
225 1.21176
230 1.21786
235 1.09646
240 1.00527
245 1.28032
250 1.36129
255 1.26384
260 14.6298
265 48.4809
270 13.2778
275 2.75203
280 1.55968
285 1.51602
290 1.76712
295 1.52093
300 1.49977
305 1.47524
310 1.57186
315 1.56163
320 1.51118
325 1.78341
330 1.73379
335 1.69552
340 1.623
345 1.73022
350 1.85676
355 1.8867
360 1.89009
365 1.90161
370 2.16971
375 2.16216
380 2.29488
385 2.17077
390 2.2416
395 2.61191
400 2.79217
405 2.81838
410 2.90531
415 2.902
420 3.44529
425 3.28866
430 3.66688
435 3.90487
440 4.14379
445 4.32224
450 4.74172
455 5.24626
460 5.70737
465 5.90979
470 6.29436
475 6.78851
480 7.24551
485 7.84357
490 8.99134
495 9.87754
500 11.9473
505 14.6036
510 19.9422
515 28.1211
520 43.5819
525 1455.66
530 9999.9
535 9999.9
540 8068.05
545 971.083
550 138.154
555 33.7391
560 17.7176
565 12.9484
570 8.90755
575 7.30575
580 6.40036
585 5.95362
590 5.35201
595 5.06145
600 5.61801
Ex : 543
200 1.1262
205 1.10439
210 1.22548
215 1.07359
220 1.15623
225 1.094
230 1.01604
235 1.16174
240 1.05543
245 1.21655
250 1.20459
255 1.21607
260 3.12273
265 54.4701
270 43.4459
275 6.49093
280 1.98174
285 1.4987
290 1.54358
295 1.76491
300 1.74939
305 1.73114
310 1.6861
315 1.56649
320 1.74303
325 1.76907
330 1.86168
335 1.71554
340 1.79305
345 1.83452
350 1.8042
355 1.84295
360 1.76794
365 2.00519
370 1.95776
375 2.23056
380 2.25239
385 2.31717
390 2.48074
395 2.31333
400 2.41134
405 2.55899
410 2.65518
415 2.95136
420 3.24355
425 3.01692
430 3.36887
435 3.92065
440 4.00541
445 4.20902
450 4.36766
455 4.74605
460 5.52569
465 5.66189
470 6.29126
475 6.28998
480 6.663
485 7.09685
490 8.21996
495 8.51946
500 9.87163
505 11.7094
510 14.7711
515 20.4365
520 27.2558
525 42.5058
530 1344.86
535 9999.9
540 9999.9
545 8305.66
550 1003.62
555 140.957
560 33.8694
565 17.2485
570 11.8853
575 8.53858
580 6.90813
585 6.20412
590 5.66891
595 5.46884
600 6.11108
Ex : 548
200 1.29107
205 1.08947
210 1.12716
215 1.05299
220 1.28913
225 1.33083
230 1.03919
235 1.17574
240 1.09268
245 1.13063
250 1.07121
255 1.18181
260 1.23497
265 25.0835
270 89.2184
275 21.9076
280 3.93618
285 1.83433
290 1.78315
295 1.70222
300 1.7187
305 1.64437
310 1.50089
315 1.61615
320 1.51821
325 1.61786
330 1.71762
335 1.7963
340 1.68421
345 1.91742
350 1.88518
355 1.98009
360 1.92836
365 1.77565
370 1.99612
375 2.02585
380 2.20688
385 2.30321
390 2.35824
395 2.28075
400 2.70132
405 2.56507
410 2.66244
415 2.85381
420 2.99321
425 3.25212
430 3.33921
435 3.62925
440 3.52543
445 3.98726
450 4.18232
455 4.33601
460 4.93144
465 5.91459
470 5.98298
475 5.90393
480 5.86269
485 6.62474
490 7.38803
495 7.87843
500 7.87727
505 9.95161
510 12.0288
515 15.6466
520 20.0753
525 27.0095
530 42.9001
535 1475.07
540 9999.9
545 9999.9
550 8319.31
555 1001.41
560 140.553
565 33.553
570 17.0119
575 11.6912
580 7.98628
585 6.37031
590 5.88421
595 5.49771
600 7.88358
Ex : 553
200 1.11417
205 1.11714
210 1.07563
215 1.12463
220 1.14706
225 1.17316
230 1.0762
235 1.16643
240 1.09878
245 1.03504
250 1.08261
255 1.32655
260 1.29852
265 4.24746
270 84.8967
275 71.5235
280 10.2129
285 2.46146
290 1.65836
295 1.66088
300 1.71072
305 1.6543
310 1.64047
315 1.5107
320 1.59898
325 1.67122
330 1.74521
335 1.79411
340 1.62301
345 1.81261
350 1.88275
355 1.7412
360 1.75061
365 1.92018
370 1.73876
375 1.98222
380 2.08389
385 2.36135
390 2.33038
395 2.1869
400 2.61065
405 2.65931
410 2.8462
415 2.84846
420 2.776
425 3.04096
430 3.27776
435 3.2648
440 3.74427
445 3.96384
450 3.97297
455 4.07973
460 4.7234
465 5.33925
470 5.30689
475 5.23938
480 5.59195
485 6.12635
490 6.76927
495 6.79454
500 7.4673
505 8.76495
510 10.0463
515 11.7022
520 14.4104
525 19.195
530 26.597
535 42.1475
540 1291.93
545 9999.9
550 9999.9
555 8468.54
560 1021.65
565 142.209
570 32.8222
575 15.8169
580 11.0656
585 7.3646
590 5.89016
595 5.31367
600 6.65022
Ex : 558
200 1.32161
205 1.12388
210 1.08972
215 1.09065
220 1.09312
225 1.14832
230 0.950045
235 1.09752
240 1.12673
245 1.27956
250 1.31929
255 1.19426
260 1.31738
265 1.45718
270 35.0343
275 134.853
280 33.9142
285 5.20956
290 2.05192
295 1.7621
300 1.75034
305 1.75864
310 1.79527
315 1.62667
320 1.5885
325 1.8136
330 2.01032
335 1.78481
340 1.74539
345 1.87631
350 1.89454
355 1.76009
360 1.81144
365 2.03051
370 2.00461
375 2.03755
380 2.01466
385 2.07107
390 2.24722
395 2.21794
400 2.84711
405 2.62008
410 2.649
415 2.72929
420 2.75078
425 2.86442
430 2.98369
435 3.24161
440 3.45326
445 3.46261
450 4.00905
455 4.06568
460 4.31722
465 5.09972
470 5.03931
475 5.42453
480 5.28708
485 5.81197
490 6.43117
495 6.26986
500 6.8418
505 7.57009
510 8.09114
515 9.39645
520 11.4414
525 15.023
530 19.3076
535 26.6583
540 40.8197
545 1225.11
550 9999.9
555 9999.9
560 8585.35
565 1036.61
570 142.717
575 32.4167
580 15.5643
585 10.4108
590 7.37035
595 5.75139
600 5.10133
Ex : 563
200 1.12776
205 1.17962
210 1.33061
215 1.30504
220 1.31589
225 1.15646
230 1.05126
235 1.19572
240 1.13564
245 1.16477
250 1.30665
255 1.12703
260 1.28817
265 1.37133
270 5.32035
275 120.832
280 100.663
285 14.2756
290 2.98782
295 1.78193
300 1.72193
305 1.69206
310 1.6579
315 1.69029
320 1.79098
325 1.76806
330 1.7139
335 1.93387
340 1.73816
345 1.69176
350 1.86178
355 1.88272
360 1.96922
365 2.02073
370 1.86447
375 1.98288
380 2.10361
385 2.16144
390 2.19517
395 2.32707
400 2.6513
405 2.46117
410 2.55529
415 2.69746
420 2.82193
425 2.69235
430 2.59312
435 3.05926
440 3.2118
445 3.50478
450 3.69887
455 4.06137
460 4.41657
465 4.75816
470 5.19397
475 5.02468
480 5.32697
485 5.33642
490 5.79685
495 6.37834
500 6.44714
505 6.87735
510 7.51279
515 8.65209
520 9.63793
525 11.4065
530 14.5331
535 18.9649
540 26.2865
545 40.9613
550 1213.14
555 9999.9
560 9999.9
565 8630.2
570 1039.32
575 141.811
580 30.687
585 14.1506
590 9.61456
595 6.86943
600 5.8936
Ex : 568
200 1.12738
205 1.12554
210 1.07784
215 1.17991
220 1.13511
225 1.31582
230 1.16929
235 1.21857
240 1.07305
245 1.11578
250 1.17848
255 1.34219
260 1.11888
265 1.21718
270 1.52387
275 42.8851
280 175.642
285 46.7933
290 6.85335
295 2.12674
300 1.55322
305 1.69259
310 1.6224
315 1.57883
320 1.77443
325 1.69727
330 1.73079
335 1.69617
340 1.74577
345 1.81923
350 1.59257
355 1.86189
360 1.8517
365 2.13401
370 1.85097
375 1.91122
380 2.19753
385 2.09325
390 2.07709
395 2.15247
400 2.1723
405 2.44581
410 2.56378
415 2.60804
420 2.59341
425 2.84757
430 2.64387
435 2.58682
440 3.18025
445 3.3627
450 3.47073
455 3.73615
460 4.39052
465 4.795
470 4.81265
475 4.63434
480 4.89989
485 5.06985
490 5.55153
495 5.77084
500 5.89795
505 6.58332
510 6.62936
515 7.46889
520 8.30592
525 9.75556
530 11.0018
535 13.7652
540 18.939
545 25.4538
550 39.7139
555 923.188
560 9999.9
565 9999.9
570 8968.17
575 1085
580 144.861
585 30.5612
590 13.3756
595 9.00279
600 7.30643
Ex : 573
200 1.16874
205 1.14137
210 1.00887
215 1.13594
220 1.25082
225 1.24256
230 1.13024
235 1.07386
240 1.09949
245 1.16262
250 1.16751
255 1.1773
260 1.19261
265 1.22433
270 1.54462
275 5.032
280 143.011
285 134.923
290 18.8326
295 3.74413
300 1.75579
305 1.8012
310 1.53511
315 1.90046
320 1.63991
325 1.54794
330 1.8113
335 1.5517
340 1.83734
345 1.95472
350 1.97003
355 1.98659
360 1.81076
365 2.04193
370 1.9429
375 1.93952
380 2.07679
385 1.97542
390 2.0807
395 2.06601
400 2.29049
405 2.2235
410 2.12339
415 2.32055
420 2.41066
425 2.38871
430 2.70808
435 2.9697
440 2.91749
445 3.39976
450 3.47388
455 3.64848
460 3.71339
465 4.50169
470 4.48386
475 4.42998
480 4.49057
485 5.02998
490 5.12085
495 5.06548
500 5.15211
505 5.59587
510 6.23746
515 6.61847
520 6.90341
525 7.48392
530 9.16737
535 10.6736
540 13.442
545 18.5234
550 24.8794
555 37.1178
560 797.657
565 9999.9
570 9999.9
575 8750.93
580 1056.68
585 139.772
590 28.5954
595 12.724
600 11.4337
Ex : 578
200 1.0493
205 1.03265
210 1.02292
215 1.22524
220 1.32858
225 1.14
230 1.08534
235 1.03797
240 1.21365
245 1.12663
250 1.12698
255 1.25986
260 1.13635
265 1.26325
270 1.27047
275 1.70546
280 50.5485
285 216.467
290 59.7464
295 8.10856
300 2.18803
305 1.60339
310 1.59826
315 1.64473
320 1.59356
325 1.49171
330 1.71142
335 1.60888
340 1.6659
345 1.59356
350 1.64024
355 1.61025
360 1.7103
365 1.80481
370 1.64019
375 2.03737
380 2.00613
385 1.80753
390 1.87262
395 1.99285
400 1.79149
405 1.97771
410 2.01328
415 1.98621
420 2.27875
425 2.39321
430 2.45397
435 2.72098
440 2.85718
445 2.82886
450 3.25075
455 3.66636
460 4.0536
465 4.21597
470 3.89752
475 4.25071
480 4.21042
485 4.74019
490 4.56617
495 4.78138
500 5.1715
505 5.34932
510 5.45548
515 5.53349
520 6.51028
525 6.64258
530 7.52747
535 8.55416
540 10.4378
545 12.9183
550 17.0001
555 23.3073
560 35.068
565 712.768
570 9999.9
575 9999.9
580 7659.35
585 921.244
590 121.814
595 25.3067
600 12.309
Ex : 583
200 0.948867
205 0.936043
210 1.00313
215 0.923495
220 1.00879
225 0.997561
230 0.807944
235 0.858448
240 1.12092
245 1.21374
250 0.899581
255 0.966126
260 1.15225
265 1.14374
270 1.24727
275 1.37285
280 5.92228
285 168.642
290 161.621
295 22.1925
300 3.96143
305 1.70332
310 1.53576
315 1.67714
320 1.57142
325 1.35993
330 1.61084
335 1.63478
340 1.59271
345 1.57179
350 1.47678
355 1.67847
360 1.62184
365 1.57865
370 1.70964
375 1.84885
380 1.83515
385 1.86708
390 1.94898
395 1.7778
400 1.80978
405 2.05972
410 2.12423
415 2.46909
420 2.08453
425 2.28191
430 2.42058
435 2.60016
440 2.77828
445 2.72442
450 2.71599
455 3.13199
460 3.43196
465 3.71981
470 3.95442
475 3.99213
480 3.85066
485 4.17645
490 4.37832
495 4.36792
500 4.67568
505 4.45216
510 4.93261
515 5.18922
520 5.34149
525 6.09676
530 6.75548
535 7.29631
540 8.46751
545 9.79917
550 12.5598
555 16.5836
560 22.3693
565 34.0595
570 633.299
575 9999.9
580 9999.9
585 6391.38
590 771.198
595 103.208
600 22.0183
Ex : 588
200 0.949793
205 1.19148
210 0.922444
215 0.798683
220 1.0194
225 0.765824
230 0.931755
235 0.806587
240 0.888564
245 0.939739
250 1.02774
255 0.983149
260 1.00257
265 0.864728
270 1.14165
275 1.26786
280 1.4973
285 56.1044
290 250.522
295 72.2105
300 9.87231
305 2.35972
310 1.45271
315 1.59505
320 1.60324
325 1.39553
330 1.24368
335 1.46511
340 1.45293
345 1.38742
350 1.43405
355 1.5917
360 1.71693
365 1.50212
370 1.44449
375 1.72755
380 1.70817
385 1.78598
390 1.88394
395 2.15273
400 1.85049
405 1.78538
410 1.99367
415 1.9999
420 2.07997
425 2.25664
430 2.39486
435 2.28837
440 2.23008
445 2.40964
450 2.74292
455 2.84998
460 3.19417
465 3.71542
470 3.67598
475 3.52913
480 3.69245
485 3.55375
490 3.98749
495 4.21532
500 4.45456
505 4.36697
510 4.17342
515 4.63175
520 4.88549
525 5.2893
530 5.55849
535 6.43546
540 6.79722
545 8.19101
550 10.3872
555 12.1705
560 15.2826
565 20.5926
570 30.8221
575 563.37
580 9999.9
585 9999.9
590 5968.89
595 718.521
600 96.1865
Ex : 593
200 1.03628
205 1.0179
210 0.842323
215 0.874446
220 0.905977
225 1.01984
230 0.904572
235 0.983154
240 1.0949
245 0.890456
250 0.870963
255 0.875125
260 1.03397
265 0.815318
270 0.988912
275 0.906631
280 1.19908
285 6.18333
290 192.012
295 198.52
300 27.5613
305 4.14929
310 1.65082
315 1.36768
320 1.53335
325 1.52861
330 1.59161
335 1.45184
340 1.53862
345 1.39983
350 1.31784
355 1.59685
360 1.60205
365 1.46511
370 1.57364
375 1.65511
380 1.88725
385 1.58013
390 1.8331
395 1.7079
400 1.71179
405 1.81948
410 1.9179
415 1.89239
420 2.18021
425 2.15205
430 1.96797
435 2.05614
440 1.98312
445 2.22056
450 2.47323
455 2.84214
460 3.0224
465 3.46149
470 3.32672
475 3.53323
480 3.51932
485 3.45905
490 3.82623
495 3.90897
500 4.07232
505 3.88299
510 4.12326
515 4.06094
520 4.51603
525 5.02423
530 5.14959
535 5.58169
540 5.97161
545 6.70887
550 7.78001
555 9.15223
560 11.6027
565 15.2162
570 19.638
575 27.4592
580 489.62
585 9999.9
590 9999.9
595 5414.04
600 805.609
Ex : 598
200 0.825219
205 0.957609
210 0.893751
215 0.906267
220 1.03765
225 0.947581
230 0.837495
235 0.799069
240 0.828703
245 0.804823
250 0.866229
255 0.821222
260 0.809232
265 0.97846
270 0.989254
275 0.97335
280 1.14859
285 1.2789
290 62.858
295 296.747
300 88.1876
305 11.4306
310 2.53181
315 1.47163
320 1.50203
325 1.38037
330 1.5104
335 1.43491
340 1.29357
345 1.49597
350 1.32262
355 1.41825
360 1.52134
365 1.36852
370 1.47423
375 1.68289
380 1.49184
385 1.44316
390 1.76336
395 1.75579
400 1.81442
405 1.94571
410 1.78865
415 1.88672
420 1.79546
425 1.87569
430 2.06
435 2.08038
440 1.88923
445 2.10227
450 2.24871
455 2.4915
460 3.11336
465 2.80948
470 3.28979
475 3.17527
480 3.30898
485 3.57607
490 3.57569
495 3.61941
500 3.69962
505 3.73108
510 4.07022
515 3.86413
520 4.21208
525 4.47923
530 4.98858
535 4.61211
540 5.39685
545 5.92866
550 6.24374
555 8.0103
560 8.94889
565 11.1443
570 14.3198
575 17.684
580 24.0828
585 484.769
590 9999.9
595 9999.9
600 9999.9
Ex : 603
200 0.786931
205 0.820165
210 0.76574
215 0.83177
220 0.895795
225 0.827367
230 0.844016
235 0.873028
240 0.908359
245 0.837185
250 0.722343
255 0.803104
260 0.82951
265 0.90669
270 0.930966
275 0.836529
280 0.948602
285 1.52463
290 6.24816
295 219.086
300 241.987
305 33.9797
310 5.45388
315 1.85771
320 1.31911
325 1.43153
330 1.67082
335 1.40176
340 1.33464
345 1.36567
350 1.25629
355 1.45201
360 1.31647
365 1.3125
370 1.41938
375 1.45852
380 1.61076
385 1.7451
390 1.66855
395 1.48975
400 2.03614
405 1.65755
410 1.85776
415 1.90995
420 1.8683
425 1.88198
430 1.78014
435 1.81169
440 1.85116
445 2.1029
450 2.20361
455 2.52811
460 2.61565
465 2.90309
470 2.62359
475 3.24444
480 2.98628
485 3.10996
490 3.33956
495 3.70401
500 3.45133
505 3.50982
510 3.5143
515 3.83889
520 4.17683
525 4.02581
530 4.17457
535 4.98054
540 4.86439
545 5.39999
550 5.76414
555 6.13291
560 7.45514
565 8.37246
570 10.2482
575 12.29
580 15.6103
585 21.7154
590 423.233
595 9999.9
600 9999.9
