File format V 1.0
mar. 14. juin 09:20:17 2016
Operator : 
Comments : 

=============================================
SpectroFluorometer parameters
Mode : 3D measurement
Data : Fluorescence
Phospho. : Ordinary
Spectrum : Fluorescence

Scan speed : 2400 nm/mn
Response : 100 ms
PM Voltage : 700 V
Shutter : On

Lambda Ex. Start : 203
Lambda Ex. End : 603
Lambda Ex. Step : 5
Ex. Slit : 5 nm

Lambda Em. Start : 200
Lambda Em. End : 600
Lambda Em. Step : 5
Em. Slit : 5 nm

Repetition : 1
Decal lambda em : 10
=============================================
DATA
Ex : 203
200 18.1011
205 14.432
210 13.0555
215 12.0771
220 12.1239
225 15.6104
230 11.7884
235 13.8413
240 15.9929
245 14.6865
250 10.9145
255 14.0628
260 13.6527
265 14.341
270 12.1951
275 12.6804
280 14.5358
285 18.8924
290 15.7415
295 18.9064
300 21.4304
305 19.0949
310 23.863
315 17.7499
320 28.9725
325 26.3165
330 33.5343
335 27.946
340 33.9856
345 31.4976
350 31.8764
355 31.7196
360 35.1825
365 32.9297
370 37.5971
375 37.2173
380 41.9807
385 46.3309
390 45.4634
395 45.6224
400 47.5927
405 50.18
410 49.1244
415 50.5369
420 46.8761
425 52.6423
430 60.587
435 58.0584
440 52.5278
445 49.5816
450 48.9869
455 52.8323
460 64.4761
465 64.0745
470 55.506
475 52.0198
480 62.2072
485 55.8908
490 51.2242
495 43.6388
500 50.4921
505 50.5118
510 41.7573
515 36.8097
520 36.6405
525 46.2692
530 39.2484
535 38.7634
540 45.4992
545 38.5562
550 45.261
555 40.015
560 39.9003
565 35.841
570 41.7256
575 44.8515
580 37.3315
585 37.8942
590 38.1953
595 30.697
600 46.031
Ex : 208
200 9.96273
205 12.9054
210 11.9985
215 10.6804
220 14.7759
225 14.6626
230 9.06781
235 12.5235
240 11.3194
245 14.4209
250 11.8973
255 15.3846
260 12.5646
265 18.5733
270 16.0917
275 11.4159
280 13.492
285 17.56
290 12.7322
295 15.5138
300 20.9647
305 23.1175
310 27.5946
315 19.389
320 27.1564
325 29.4982
330 27.6407
335 35.3019
340 30.4796
345 38.2792
350 33.6832
355 34.5969
360 34.4707
365 38.5752
370 31.6688
375 42.728
380 43.0972
385 51.5832
390 46.4088
395 46.9013
400 48.9941
405 44.2205
410 43.6763
415 59.535
420 47.8695
425 44.4403
430 54.4538
435 49.4311
440 52.2501
445 59.988
450 56.2283
455 61.9437
460 57.2899
465 67.8061
470 59.0808
475 53.9465
480 55.6679
485 57.7296
490 50.4772
495 49.0475
500 41.6942
505 40.0427
510 44.7243
515 39.2009
520 47.0567
525 41.8411
530 46.5356
535 39.9198
540 44.2364
545 35.6025
550 35.5575
555 39.5101
560 37.2856
565 42.2636
570 46.2355
575 44.5874
580 33.7247
585 42.492
590 30.8562
595 29.7865
600 11.587
Ex : 213
200 14.3121
205 9.93747
210 10.9538
215 18.1196
220 11.4893
225 12.6879
230 11.3456
235 20.9156
240 16.314
245 17.1745
250 14.9009
255 13.5332
260 15.7649
265 15.6648
270 17.4639
275 16.2614
280 14.5183
285 15.9205
290 20.7418
295 18.3275
300 20.1844
305 21.5564
310 20.8405
315 22.8353
320 22.8583
325 25.2959
330 27.1462
335 31.602
340 31.8966
345 31.8811
350 34.6098
355 33.9808
360 39.5444
365 40.1128
370 37.1233
375 43.2961
380 40.8379
385 47.1343
390 47.2543
395 53.3438
400 47.4088
405 50.1991
410 53.3244
415 51.9807
420 51.621
425 46.8509
430 46.9732
435 45.2945
440 50.9588
445 45.6591
450 46.8373
455 52.2885
460 61.8256
465 62.7344
470 61.5086
475 59.6738
480 54.3847
485 49.314
490 62.1259
495 53.2261
500 48.2856
505 44.7206
510 46.7613
515 40.3239
520 43.0571
525 41.9368
530 49.1726
535 38.0848
540 39.886
545 40.1788
550 37.3671
555 51.9958
560 40.8669
565 41.3723
570 41.6179
575 35.4825
580 34.4941
585 46.9354
590 34.5016
595 28.6808
600 79.4773
Ex : 218
200 14.954
205 9.81314
210 13.1823
215 11.689
220 15.321
225 13.5023
230 10.1988
235 11.8101
240 12.6666
245 16.4182
250 12.4317
255 11.7639
260 14.1581
265 14.2345
270 15.1856
275 12.9854
280 13.9092
285 21.4906
290 14.7192
295 16.9839
300 19.0797
305 19.8381
310 16.9649
315 21.9113
320 27.5957
325 29.4479
330 28.4047
335 32.1767
340 30.0508
345 31.4586
350 33.3372
355 33.0786
360 34.6527
365 33.947
370 40.6735
375 42.3818
380 38.2723
385 36.6897
390 40.2221
395 47.5533
400 47.7424
405 47.2057
410 48.8906
415 47.7708
420 49.1698
425 50.6196
430 47.6549
435 51.925
440 47.1772
445 51.3239
450 49.7076
455 49.4048
460 60.0686
465 64.4679
470 57.6775
475 58.4615
480 55.876
485 53.2088
490 54.9377
495 49.6554
500 41.2095
505 43.8549
510 42.1347
515 41.1511
520 40.4153
525 38.0629
530 37.156
535 40.9451
540 41.0184
545 44.4735
550 38.5352
555 39.7183
560 41.2924
565 46.241
570 40.6246
575 40.0332
580 36.0159
585 29.1213
590 28.0209
595 24.4436
600 8.09882
Ex : 223
200 12.2642
205 14.3637
210 10.7887
215 13.9871
220 11.7732
225 9.7167
230 11.1237
235 11.6224
240 10.064
245 16.4822
250 12.5532
255 16.3674
260 10.3476
265 13.1807
270 12.0972
275 17.6866
280 15.3391
285 20.0738
290 20.6145
295 17.1994
300 19.1554
305 22.4599
310 21.7029
315 24.5086
320 22.5567
325 33.4925
330 36.4667
335 32.3261
340 37.2359
345 37.3206
350 32.3688
355 34.054
360 35.953
365 41.3368
370 38.8773
375 40.8197
380 35.2851
385 44.0506
390 44.9759
395 42.1437
400 51.6448
405 45.9801
410 56.4492
415 55.9945
420 53.0294
425 47.7436
430 49.3147
435 46.3146
440 50.5214
445 59.5907
450 47.8251
455 54.3101
460 64.2312
465 57.3214
470 61.2399
475 59.0938
480 57.8992
485 50.1122
490 54.7442
495 43.9267
500 39.556
505 37.8419
510 43.0324
515 42.947
520 42.0177
525 40.1441
530 37.6159
535 36.9917
540 43.3696
545 42.6848
550 39.2732
555 40.8522
560 46.5682
565 39.898
570 41.8211
575 34.8582
580 36.3593
585 33.3412
590 30.8535
595 29.8317
600 21.3404
Ex : 228
200 12.5047
205 10.7087
210 15.4067
215 12.3091
220 18.2149
225 15.7293
230 17.2644
235 12.4411
240 10.7892
245 13.3688
250 14.3318
255 11.2866
260 11.2213
265 12.8149
270 13.2109
275 16.1562
280 15.8302
285 23.0558
290 18.1737
295 21.1379
300 15.3212
305 25.8008
310 22.3897
315 26.4708
320 26.8078
325 29.4801
330 27.1504
335 37.2404
340 34.1174
345 35.9657
350 36.7525
355 28.9822
360 35.0941
365 35.2229
370 32.8281
375 39.2277
380 39.5074
385 40.9256
390 45.6109
395 45.9009
400 48.1304
405 49.8094
410 53.5981
415 53.4878
420 46.7864
425 51.8339
430 42.9162
435 51.1242
440 54.2026
445 53.7882
450 67.9797
455 99.4067
460 106.212
465 68.3963
470 59.7506
475 47.0253
480 51.2025
485 48.1022
490 47.4267
495 48.7573
500 47.8289
505 41.3891
510 39.1611
515 41.8675
520 41.7743
525 33.5115
530 32.7804
535 36.7329
540 38.0979
545 40.0361
550 36.6277
555 37.4723
560 39.9316
565 40.5718
570 33.3887
575 42.4208
580 32.7449
585 35.8725
590 34.3622
595 30.4069
600 27.3877
Ex : 233
200 13.5634
205 10.8259
210 10.0647
215 12.4602
220 13.0547
225 15.7352
230 26.662
235 19.6853
240 12.2392
245 11.0353
250 12.4029
255 10.8085
260 10.6024
265 11.8044
270 15.4
275 13.5083
280 14.1595
285 19.5296
290 17.4001
295 17.0994
300 19.6539
305 17.8609
310 22.6655
315 23.8562
320 28.5631
325 27.1521
330 29.8049
335 30.631
340 31.8322
345 38.2656
350 39.7757
355 36.2202
360 40.8388
365 36.8474
370 36.9157
375 37.3799
380 38.8718
385 34.8729
390 45.8732
395 50.5179
400 43.0645
405 42.0022
410 49.7069
415 45.7958
420 43.2295
425 40.6143
430 47.0868
435 43.7149
440 49.0477
445 46.4576
450 61.7518
455 82.8177
460 212.279
465 281.076
470 206.92
475 77.9426
480 50.4371
485 42.3521
490 45.529
495 42.908
500 39.6813
505 42.8703
510 42.6015
515 40.4444
520 35.3305
525 40.0374
530 40.792
535 33.3877
540 32.8718
545 33.0789
550 38.2078
555 38.4545
560 40.5557
565 35.8029
570 35.4915
575 37.053
580 42.2068
585 33.141
590 35.7763
595 36.1526
600 11.7945
Ex : 238
200 11.0082
205 10.708
210 10.7397
215 10.9958
220 9.97983
225 15.7657
230 40.9523
235 66.3967
240 24.0861
245 11.232
250 8.45715
255 12.6663
260 11.3953
265 11.9491
270 12.6504
275 14.6733
280 13.4472
285 15.6264
290 17.1573
295 16.8222
300 17.0632
305 22.2562
310 20.9437
315 21.1637
320 20.8372
325 28.76
330 29.1723
335 29.3361
340 34.4143
345 38.123
350 30.1852
355 31.9252
360 33.7065
365 35.1768
370 32.6715
375 33.7452
380 37.5791
385 36.4167
390 40.1347
395 50.3805
400 49.8944
405 41.9104
410 43.6419
415 38.6089
420 41.0426
425 40.5885
430 38.789
435 41.4337
440 41.8617
445 42.6866
450 40.2856
455 48.1535
460 61.2567
465 178.025
470 415.651
475 477.136
480 292.933
485 87.4773
490 49.6307
495 38.9859
500 34.4791
505 36.9742
510 38.7294
515 42.7409
520 38.0022
525 34.0557
530 31.5475
535 37.0395
540 33.5265
545 33.1693
550 36.0432
555 40.0129
560 37.7675
565 34.6764
570 34.2792
575 35.8946
580 32.6647
585 31.842
590 32.7829
595 27.5802
600 16.9633
Ex : 243
200 8.6171
205 9.14633
210 10.7662
215 7.99365
220 10.2668
225 11.2394
230 12.5678
235 66.4489
240 84.0958
245 27.3059
250 11.5399
255 10.6741
260 12.327
265 10.5098
270 8.57895
275 12.3303
280 13.8914
285 12.2846
290 13.7987
295 19.5097
300 19.1457
305 18.6966
310 15.8287
315 19.0495
320 24.8236
325 22.9971
330 22.2643
335 20.0793
340 27.9817
345 30.218
350 32.552
355 29.158
360 26.833
365 31.8287
370 31.5701
375 29.0151
380 33.5552
385 35.6283
390 29.2535
395 37.3747
400 38.8718
405 38.5554
410 33.7778
415 34.0476
420 37.8529
425 38.2399
430 34.1577
435 36.7134
440 36.4195
445 38.3128
450 36.7993
455 36.0283
460 42.8945
465 45.6212
470 70.8117
475 254.693
480 513.149
485 529.677
490 292.169
495 83.1509
500 40.9853
505 34.9658
510 32.2423
515 32.1592
520 38.3909
525 37.9267
530 34.4405
535 29.8136
540 31.1142
545 29.2249
550 31.5126
555 37.5783
560 37.6798
565 35.1672
570 34.2029
575 29.3938
580 31.8196
585 29.2645
590 27.5531
595 27.0348
600 27.3838
Ex : 248
200 6.25656
205 8.51163
210 7.12934
215 6.09366
220 5.52451
225 6.93514
230 6.39846
235 12.822
240 68.6373
245 87.6715
250 26.2964
255 11.7908
260 9.30751
265 11.174
270 8.54093
275 10.903
280 11.486
285 12.0419
290 12.9998
295 14.6176
300 15.5456
305 14.3329
310 17.3012
315 19.1711
320 21.6029
325 24.4258
330 24.8639
335 21.8264
340 23.4822
345 24.4811
350 26.9872
355 23.3809
360 23.1482
365 25.5776
370 27.0867
375 27.1456
380 27.3553
385 27.9881
390 26.6593
395 31.9873
400 31.6436
405 30.5086
410 27.9458
415 28.7833
420 33.0791
425 33.3487
430 29.1262
435 29.9765
440 30.4181
445 31.5296
450 30.4906
455 35.5849
460 34.0482
465 36.3756
470 36.7035
475 33.4086
480 68.7531
485 312.26
490 561.937
495 540.413
500 260.292
505 65.7601
510 36.3668
515 31.2122
520 28.563
525 29.3483
530 33.2451
535 33.4555
540 32.5057
545 30.3383
550 27.4733
555 30.5217
560 30.3301
565 34.215
570 27.5162
575 27.0012
580 27.8838
585 28.5063
590 23.2891
595 23.8968
600 32.0907
Ex : 253
200 6.39246
205 5.98505
210 5.24047
215 4.42902
220 5.65481
225 6.95343
230 5.38679
235 4.99455
240 10.9595
245 73.4697
250 118.223
255 43.9755
260 10.5369
265 10.9109
270 8.5137
275 11.4248
280 10.5848
285 10.8436
290 12.3903
295 12.7794
300 13.2882
305 12.9826
310 15.0274
315 16.3676
320 16.5101
325 17.2592
330 18.2578
335 21.6083
340 21.7786
345 21.1507
350 21.3885
355 22.8227
360 24.623
365 24.5764
370 23.2678
375 22.2941
380 19.0868
385 22.5045
390 26.509
395 26.3207
400 26.5107
405 29.6212
410 27.8556
415 25.9675
420 27.6489
425 26.4942
430 23.6612
435 23.1296
440 26.417
445 26.5638
450 28.6094
455 25.5578
460 28.9023
465 28.7643
470 32.7077
475 25.8626
480 27.0363
485 30.0031
490 78.9962
495 276.516
500 488.323
505 566.339
510 415.346
515 107.004
520 39.007
525 25.3833
530 25.8012
535 29.4832
540 30.8952
545 32.1243
550 32.411
555 32.9489
560 29.0458
565 26.4368
570 29.252
575 25.8634
580 25.4507
585 21.3534
590 23.5456
595 21.5605
600 18.4052
Ex : 258
200 4.35252
205 5.44903
210 4.05332
215 4.63651
220 5.34928
225 4.96747
230 4.72931
235 5.49191
240 4.67457
245 10.0177
250 182.256
255 368.852
260 119.694
265 21.0997
270 11.2324
275 12.2525
280 12.9165
285 12.1789
290 10.1662
295 12.1186
300 13.1129
305 14.8523
310 16.6679
315 17.0963
320 17.9906
325 16.4572
330 18.6386
335 20.8863
340 21.6986
345 20.4109
350 21.2804
355 20.9545
360 21.7285
365 22.5368
370 22.5002
375 19.7477
380 21.9187
385 21.36
390 22.6998
395 21.6381
400 23.5679
405 23.1221
410 23.4578
415 22.9484
420 23.4854
425 20.6457
430 19.7174
435 22.363
440 24.0602
445 22.3622
450 23.025
455 23.889
460 24.9713
465 24.4406
470 22.9065
475 21.1588
480 23.6281
485 20.8265
490 21.709
495 21.3003
500 65.0823
505 477.593
510 2035.7
515 2666.32
520 1296.85
525 236.602
530 56.2603
535 31.2953
540 24.854
545 31.2994
550 31.3837
555 37.4865
560 39.3629
565 38.5233
570 33.2693
575 28.4705
580 23.9418
585 25.2275
590 26.8421
595 23.1451
600 8.77395
Ex : 263
200 4.51577
205 3.70002
210 3.70266
215 3.7904
220 4.11901
225 3.6514
230 4.10535
235 4.77718
240 5.14356
245 4.66259
250 24.1757
255 387.968
260 795.893
265 209.781
270 33.9615
275 13.3914
280 15.4581
285 15.5039
290 13.0171
295 13.6624
300 14.2301
305 14.2613
310 14.6779
315 16.159
320 18.1443
325 16.942
330 18.8372
335 18.3553
340 18.3913
345 20.3045
350 20.44
355 18.9505
360 17.8939
365 19.7279
370 20.0043
375 17.833
380 18.8832
385 18.3818
390 20.2351
395 17.9457
400 17.4364
405 19.7009
410 19.884
415 18.5988
420 18.294
425 18.9221
430 16.7536
435 18.7407
440 16.9451
445 19.0968
450 20.1918
455 20.3229
460 19.4948
465 20.0585
470 21.665
475 18.2137
480 20.5741
485 20.2227
490 19.4614
495 17.4153
500 17.9858
505 20.628
510 200.013
515 1519.65
520 3419.76
525 3508.33
530 1791.24
535 315.668
540 70.2548
545 39.2261
550 31.8238
555 32.125
560 36.5417
565 39.706
570 40.4577
575 37.4176
580 32.8867
585 25.0809
590 24.2566
595 24.1749
600 21.6715
Ex : 268
200 2.73613
205 2.42919
210 2.20635
215 2.81132
220 3.34536
225 3.17294
230 2.45045
235 2.84517
240 3.11813
245 3.48589
250 4.82199
255 38.9419
260 687.815
265 1323.87
270 376.658
275 55.0927
280 18.344
285 17.4009
290 17.929
295 15.401
300 13.9348
305 15.6154
310 15.8817
315 16.7656
320 17.836
325 19.5341
330 17.6185
335 18.3475
340 18.186
345 18.7034
350 19.3792
355 17.5552
360 17.8823
365 17.2636
370 16.0649
375 16.4339
380 15.8905
385 16.9087
390 17.475
395 16.6591
400 16.5473
405 16.5988
410 17.4188
415 15.8437
420 15.8331
425 16.3111
430 15.8755
435 15.7669
440 14.8681
445 15.1985
450 16.429
455 16.8106
460 16.1214
465 17.1626
470 16.6314
475 16.7236
480 15.9491
485 15.9455
490 17.38
495 16.087
500 15.2823
505 16.5048
510 17.368
515 23.3269
520 293.794
525 2085.13
530 5763.31
535 6219.68
540 2705.03
545 471.172
550 94.2694
555 48.6418
560 39.1258
565 33.5941
570 33.1662
575 36.4419
580 38.4361
585 37.2112
590 31.2125
595 26.8378
600 28.1497
Ex : 273
200 2.53311
205 2.45663
210 3.43813
215 3.46357
220 2.81492
225 2.58372
230 2.7263
235 2.41641
240 3.54741
245 3.23063
250 3.39531
255 4.64863
260 63.4835
265 1169.28
270 2101.8
275 601.659
280 86.0661
285 24.05
290 18.291
295 19.8692
300 17.6364
305 16.2715
310 15.9424
315 18.3983
320 17.9138
325 18.3266
330 18.8149
335 18.0569
340 18.1102
345 19.0647
350 18.2025
355 17.0189
360 15.8672
365 16.6178
370 15.338
375 17.2325
380 15.6741
385 16.2083
390 16.5897
395 15.2873
400 15.274
405 15.1729
410 14.5542
415 15.2992
420 15.6879
425 15.3596
430 14.18
435 14.255
440 13.4931
445 16.2584
450 15.4613
455 14.4897
460 14.8663
465 16.2562
470 16.7879
475 14.8136
480 15.5158
485 16.2413
490 16.0716
495 14.5686
500 15.0264
505 14.0002
510 15.9469
515 18.2459
520 19.551
525 30.3359
530 517.014
535 3643.93
540 8942.1
545 9198.38
550 4156.67
555 686.298
560 125.806
565 53.8223
570 42.0541
575 34.9044
580 32.8563
585 35.6077
590 36.6422
595 34.3503
600 43.7881
Ex : 278
200 2.87595
205 2.6481
210 2.5762
215 2.75667
220 3.13613
225 2.68838
230 3.05272
235 2.98796
240 2.77616
245 3.19066
250 3.60706
255 4.3534
260 6.09921
265 98.5734
270 2026.13
275 3849.94
280 995.949
285 133.959
290 31.8391
295 21.1771
300 23.7379
305 20.8586
310 18.2523
315 17.7952
320 17.945
325 19.5811
330 19.8419
335 18.9146
340 19.7575
345 18.3544
350 17.928
355 16.8024
360 15.6406
365 16.3786
370 15.6845
375 14.8486
380 14.3338
385 15.5579
390 13.8281
395 14.1955
400 13.4832
405 12.6686
410 13.2838
415 13.1777
420 13.3288
425 14.5021
430 14.0336
435 14.5989
440 14.0066
445 12.7993
450 13.9776
455 14.6528
460 15.0034
465 15.9288
470 15.2063
475 14.3402
480 13.926
485 15.0981
490 13.7837
495 14.2363
500 14.0811
505 13.9678
510 14.4176
515 16.1815
520 15.8821
525 20.367
530 24.0927
535 38.3994
540 822.267
545 5803.31
550 9999.9
555 9999.9
560 5308.49
565 886.177
570 154.974
575 61.3467
580 42.0911
585 34.9779
590 32.4939
595 34.2714
600 34.0309
Ex : 283
200 2.76849
205 2.78873
210 2.57882
215 2.61165
220 2.71822
225 2.48897
230 2.54107
235 3.02645
240 2.8959
245 3.22578
250 3.63247
255 4.41369
260 5.04658
265 7.8963
270 165.431
275 3092.33
280 5273.17
285 1346.91
290 177.136
295 38.5979
300 22.3674
305 24.4711
310 21.8145
315 18.65
320 18.0156
325 19.0326
330 18.7763
335 19.0553
340 18.9496
345 19.3483
350 18.6874
355 16.6138
360 15.8161
365 15.6885
370 14.6646
375 14.9138
380 13.8108
385 13.5828
390 13.4827
395 14.0607
400 12.8733
405 12.6551
410 12.6017
415 13.1722
420 13.6555
425 13.7249
430 13.0931
435 13.5288
440 13.0561
445 14.3913
450 13.9081
455 13.9041
460 14.457
465 14.4989
470 13.5227
475 13.8856
480 13.3651
485 13.3701
490 14.0693
495 13.6556
500 12.9018
505 12.0951
510 13.6084
515 13.2512
520 14.5395
525 15.585
530 17.7623
535 20.0344
540 26.7956
545 51.0585
550 1221.97
555 7823.15
560 9999.9
565 9999.9
570 5685.17
575 924.55
580 159.197
585 59.9953
590 39.4474
595 33.3981
600 35.514
Ex : 288
200 2.46487
205 2.07654
210 2.31049
215 2.23803
220 2.50282
225 2.55111
230 2.79959
235 3.08934
240 3.03952
245 3.16264
250 3.42265
255 3.68283
260 4.43449
265 5.69817
270 9.69527
275 208.707
280 4027.63
285 6481.16
290 1630.59
295 211.104
300 42.9866
305 21.7722
310 21.7635
315 22.7255
320 19.2368
325 17.5466
330 17.2531
335 17.2063
340 17.2343
345 17.7312
350 17.2422
355 16.414
360 15.7005
365 14.1677
370 13.4612
375 13.1552
380 12.6557
385 12.4128
390 13.5988
395 12.6018
400 13.1808
405 12.6094
410 12.5492
415 13.0335
420 13.027
425 12.7411
430 12.2361
435 11.6725
440 12.8355
445 12.5496
450 12.8675
455 12.5824
460 13.4644
465 12.5712
470 12.5356
475 12.7952
480 12.9413
485 11.9067
490 11.9898
495 12.4948
500 12.7446
505 11.771
510 12.0876
515 12.0729
520 12.8039
525 13.0871
530 13.0061
535 15.4434
540 18.363
545 23.2473
550 29.7124
555 59.0684
560 1491.05
565 8893.67
570 9999.9
575 9999.9
580 5824.42
585 916.852
590 153.909
595 56.9126
600 40.2762
Ex : 293
200 2.13087
205 2.38162
210 2.31344
215 2.2574
220 2.61889
225 2.15559
230 2.81529
235 2.41774
240 3.12943
245 2.78002
250 3.59158
255 3.32953
260 4.02237
265 5.29504
270 6.50387
275 9.95383
280 280.138
285 4681.65
290 7186.1
295 1792.53
300 231.091
305 45.9207
310 21.4605
315 22.2378
320 22.7313
325 19.7346
330 16.5992
335 16.7663
340 16.2298
345 15.6694
350 15.0161
355 14.9226
360 15.0319
365 13.3187
370 13.9368
375 12.1648
380 12.0252
385 11.9151
390 12.4041
395 12.0499
400 11.7798
405 11.9314
410 12.3172
415 11.2412
420 11.6521
425 11.5846
430 12.4001
435 12.0084
440 11.3834
445 11.6672
450 12.5376
455 12.0475
460 12.3318
465 13.3176
470 11.7061
475 12.1681
480 11.5145
485 11.0067
490 11.0419
495 9.92033
500 9.9795
505 10.4938
510 11.1851
515 10.7166
520 10.5266
525 10.3564
530 11.7006
535 12.1186
540 14.2323
545 16.9727
550 20.3151
555 24.7421
560 34.2054
565 73.1927
570 1864.55
575 9999.9
580 9999.9
585 9999.9
590 5022.44
595 756.552
600 137.552
Ex : 298
200 2.44976
205 2.06728
210 2.07231
215 2.12356
220 2.69285
225 2.27793
230 2.29589
235 2.5796
240 2.94253
245 2.92157
250 3.33677
255 3.17091
260 3.36395
265 4.15784
270 5.46644
275 7.86437
280 13.4214
285 315.722
290 5251.51
295 7968.57
300 1987.32
305 254.432
310 47.5538
315 22.1579
320 21.5775
325 23.63
330 19.7579
335 16.094
340 14.516
345 14.5602
350 14.2202
355 13.9086
360 12.6273
365 12.2978
370 11.9785
375 11.1225
380 11.7365
385 11.5349
390 11.7208
395 11.4218
400 11.6154
405 10.771
410 11.5406
415 11.6384
420 11.5917
425 11.7674
430 11.0673
435 11.5458
440 11.0624
445 11.1762
450 11.5842
455 11.3969
460 10.874
465 11.8046
470 11.252
475 10.7692
480 9.98316
485 10.4695
490 10.9771
495 9.55049
500 10.0378
505 9.5448
510 9.31351
515 9.88994
520 9.72787
525 9.79452
530 10.1573
535 11.0292
540 11.7093
545 12.1506
550 13.6429
555 16.6337
560 20.0347
565 26.0817
570 33.8715
575 81.6267
580 2135.08
585 9999.9
590 9999.9
595 9999.9
600 8420.04
Ex : 303
200 2.27914
205 2.04775
210 2.23191
215 2.41828
220 2.08254
225 2.07583
230 2.27941
235 2.60925
240 2.88803
245 2.51771
250 2.51689
255 2.63221
260 3.4671
265 3.92833
270 4.85208
275 5.67528
280 8.54475
285 13.3604
290 350.376
295 6000.12
300 9175.89
305 2202.43
310 280.977
315 52.463
320 23.1068
325 21.1074
330 23.0541
335 20.1559
340 15.7795
345 13.5582
350 13.1765
355 12.3838
360 11.4653
365 11.4054
370 11.1004
375 10.8417
380 10.5406
385 10.837
390 10.5512
395 10.5844
400 10.0969
405 9.90216
410 9.58165
415 10.2388
420 9.71655
425 9.82802
430 9.28362
435 10.0737
440 10.3011
445 9.96093
450 9.76207
455 9.79314
460 10.3964
465 9.93949
470 10.0683
475 10.0747
480 9.47332
485 9.18058
490 8.42131
495 9.04099
500 8.48397
505 8.408
510 8.1028
515 7.84934
520 8.33134
525 8.43384
530 8.64044
535 8.34204
540 9.55219
545 9.92145
550 11.338
555 12.6287
560 14.4489
565 15.6768
570 19.5083
575 24.7355
580 33.7263
585 86.6017
590 2363.87
595 9999.9
600 9999.9
Ex : 308
200 1.81384
205 2.00505
210 2.04151
215 1.96673
220 1.80378
225 2.17287
230 1.99131
235 2.34749
240 2.84149
245 2.78873
250 2.77351
255 2.71421
260 3.34478
265 3.55205
270 3.67644
275 4.98527
280 5.7453
285 8.40147
290 14.5839
295 431.129
300 6699.05
305 9890.64
310 2373.52
315 301.36
320 54.9779
325 23.0559
330 19.5138
335 21.2753
340 18.4884
345 15.5844
350 12.4308
355 11.696
360 11.5334
365 10.7896
370 10.3479
375 10.6872
380 9.9974
385 10.2547
390 10.4773
395 10.5794
400 9.87908
405 9.76154
410 9.53486
415 9.80719
420 10.0783
425 9.39209
430 9.16173
435 8.87644
440 9.49096
445 9.36343
450 8.9525
455 9.28817
460 9.19248
465 9.65908
470 8.88822
475 8.51923
480 8.63425
485 8.24004
490 8.1708
495 7.4965
500 7.40459
505 7.91326
510 7.36535
515 7.53772
520 7.66255
525 7.84504
530 7.74394
535 8.59929
540 8.84591
545 8.83379
550 8.93674
555 9.4307
560 11.445
565 12.1595
570 13.7781
575 16.4953
580 19.0508
585 23.7417
590 32.6941
595 101.126
600 430.624
Ex : 313
200 1.84207
205 2.01734
210 2.1739
215 1.69186
220 1.84567
225 1.9392
230 1.73235
235 2.10708
240 2.5603
245 2.07301
250 2.44375
255 2.4021
260 2.54995
265 3.06223
270 3.18303
275 4.39464
280 5.41549
285 6.57777
290 9.36074
295 16.0863
300 459.606
305 7733.86
310 9999.9
315 2548.36
320 323.895
325 58.9438
330 23.7506
335 19.2747
340 20.4605
345 20.1042
350 16.1968
355 12.7027
360 11.2666
365 10.3798
370 10.7548
375 9.64477
380 10.2453
385 9.87502
390 9.60157
395 10.091
400 9.46445
405 9.60876
410 8.84477
415 8.81938
420 8.85518
425 9.10181
430 8.56346
435 8.68221
440 9.02229
445 8.57411
450 8.55599
455 8.54497
460 8.75962
465 8.36892
470 8.61442
475 8.09437
480 7.75378
485 7.75142
490 7.77625
495 7.52768
500 6.89035
505 6.72072
510 7.48945
515 6.73696
520 6.77265
525 7.55835
530 7.02987
535 7.20751
540 7.26591
545 7.21509
550 8.32916
555 7.98363
560 8.7739
565 10.1374
570 10.6933
575 11.4525
580 13.8943
585 15.9518
590 18.9112
595 23.2912
600 22.6752
Ex : 318
200 2.03802
205 2.09818
210 1.92311
215 2.12739
220 2.17097
225 2.08957
230 2.07705
235 2.14754
240 2.23895
245 2.46343
250 2.52733
255 2.35066
260 2.9767
265 2.87239
270 3.1752
275 3.4373
280 4.49427
285 5.14479
290 6.71041
295 10.4488
300 17.4152
305 587.98
310 8825.32
315 9999.9
320 2675.38
325 339.381
330 61.4189
335 23.919
340 18.5659
345 19.7482
350 20.0662
355 16.6185
360 12.3573
365 11.4896
370 10.7522
375 10.9071
380 10.0391
385 10.065
390 10.0538
395 9.60688
400 9.5785
405 9.64427
410 8.84247
415 8.96876
420 9.0142
425 8.62797
430 8.68964
435 8.53268
440 8.74004
445 8.47814
450 8.42138
455 8.20381
460 8.3348
465 8.39598
470 8.30943
475 8.29005
480 7.33624
485 6.95137
490 7.18759
495 6.9449
500 6.91904
505 6.63676
510 6.82654
515 7.10708
520 6.61981
525 6.92611
530 6.49221
535 6.92617
540 6.48501
545 6.81103
550 7.23446
555 7.6261
560 7.39605
565 8.01553
570 8.74325
575 9.32958
580 10.1295
585 11.2266
590 13.5895
595 14.8451
600 15.9627
Ex : 323
200 1.91846
205 1.77052
210 2.02615
215 1.82072
220 2.00298
225 2.19744
230 2.15026
235 2.00778
240 2.19258
245 2.34877
250 2.1582
255 2.57774
260 2.63022
265 2.91712
270 2.94009
275 3.28628
280 3.8561
285 4.75359
290 5.9607
295 7.68433
300 10.7387
305 18.5043
310 629.737
315 9738.63
320 9999.9
325 3022.96
330 380.848
335 66.3944
340 25.47
345 18.154
350 19.2679
355 19.9009
360 17.0497
365 13.4083
370 11.7867
375 10.9679
380 10.4539
385 9.89764
390 10.0139
395 10.0877
400 9.71519
405 8.56905
410 9.55987
415 8.98157
420 8.53385
425 8.26595
430 8.65431
435 8.47338
440 8.28364
445 8.01717
450 7.90838
455 8.21382
460 7.82495
465 8.3158
470 7.68555
475 7.36127
480 7.3306
485 7.03931
490 7.08232
495 7.20465
500 6.6879
505 6.48347
510 6.46479
515 6.48273
520 6.74362
525 6.34308
530 6.25436
535 6.35014
540 6.44038
545 6.62971
550 6.4059
555 6.93811
560 7.04687
565 7.44035
570 7.36879
575 7.93322
580 8.17466
585 8.83692
590 9.79964
595 10.8034
600 10.9354
Ex : 328
200 1.73221
205 1.85829
210 1.9491
215 1.87306
220 1.85889
225 1.92345
230 2.03802
235 2.13795
240 2.0264
245 1.99368
250 2.42785
255 2.56229
260 2.53837
265 2.71278
270 2.8373
275 3.28648
280 3.77347
285 3.97805
290 5.16717
295 6.29016
300 7.98291
305 11.6997
310 19.9757
315 683.689
320 9999.9
325 9999.9
330 3108.22
335 393.102
340 69.2595
345 26.3897
350 18.7145
355 17.926
360 18.4978
365 17.7135
370 14.1905
375 11.9994
380 10.8086
385 10.4693
390 9.73291
395 9.94439
400 9.40551
405 9.3998
410 9.26869
415 8.7836
420 8.6424
425 8.64153
430 8.41735
435 8.55965
440 8.0591
445 8.20645
450 8.12749
455 8.0585
460 8.27075
465 7.98095
470 8.21442
475 7.35036
480 7.25507
485 7.05167
490 6.65266
495 7.14501
500 6.19641
505 6.40172
510 6.19367
515 6.16858
520 6.4285
525 6.14563
530 6.20187
535 6.20784
540 5.91612
545 6.01238
550 5.995
555 6.10154
560 6.44112
565 6.63642
570 6.98661
575 6.94432
580 7.13148
585 7.40752
590 7.90242
595 8.70321
600 6.39624
Ex : 333
200 1.54289
205 1.8216
210 1.784
215 1.70175
220 1.87168
225 2.14619
230 1.89828
235 1.97859
240 1.95071
245 2.09112
250 2.24399
255 2.41378
260 2.60174
265 2.48071
270 2.78998
275 2.97178
280 3.54993
285 3.70024
290 4.86086
295 5.23306
300 6.35185
305 8.417
310 12.2091
315 22.6909
320 835.387
325 9999.9
330 9999.9
335 3314.04
340 416.091
345 72.13
350 26.5442
355 18.5957
360 16.9573
365 18.3705
370 18.0438
375 14.6608
380 12.091
385 10.8743
390 11.0371
395 10.7695
400 10.2362
405 9.82951
410 9.31088
415 9.3059
420 9.37584
425 8.78747
430 8.74431
435 8.361
440 8.3428
445 7.9499
450 8.06641
455 7.71417
460 8.32578
465 7.91423
470 8.07709
475 7.07406
480 7.10273
485 6.94188
490 7.07993
495 6.36828
500 6.02849
505 6.20864
510 6.08512
515 6.15403
520 5.8153
525 5.85316
530 5.70172
535 5.59349
540 5.88194
545 5.71074
550 5.977
555 5.85358
560 5.71029
565 5.75217
570 5.82964
575 6.06999
580 6.3458
585 6.471
590 6.72104
595 7.10209
600 7.04683
Ex : 338
200 1.64452
205 1.61427
210 1.56692
215 1.67289
220 1.72411
225 1.90342
230 1.79034
235 1.77718
240 1.88767
245 2.12089
250 2.03439
255 2.10515
260 2.1592
265 2.34624
270 2.69117
275 2.73587
280 3.22411
285 3.25939
290 4.07808
295 4.45774
300 5.49483
305 6.67643
310 9.36551
315 13.8433
320 23.6923
325 896.663
330 9999.9
335 9999.9
340 3403.93
345 427.511
350 73.3003
355 26.1896
360 18.3731
365 16.9941
370 17.2697
375 17.7004
380 15.1569
385 12.4906
390 11.1608
395 10.6558
400 10.3343
405 9.61447
410 9.20654
415 9.18474
420 9.23027
425 9.36075
430 8.48223
435 8.56249
440 8.18734
445 7.956
450 7.81304
455 8.071
460 7.91902
465 7.74474
470 7.67068
475 7.62892
480 6.92682
485 6.8465
490 6.66924
495 6.34053
500 6.46332
505 6.06783
510 5.98476
515 5.79327
520 5.85437
525 5.77689
530 5.46841
535 5.67073
540 5.37709
545 5.38227
550 5.27987
555 5.57941
560 5.66283
565 5.33217
570 5.38539
575 5.34975
580 5.64954
585 5.93142
590 5.98848
595 6.12867
600 6.14354
Ex : 343
200 1.52096
205 1.73017
210 1.69497
215 1.60106
220 1.66777
225 1.7719
230 1.99009
235 1.79667
240 1.8774
245 2.04467
250 1.92429
255 2.18432
260 2.21316
265 2.10819
270 2.64862
275 2.5376
280 2.8576
285 2.94657
290 3.20738
295 3.87072
300 4.59076
305 5.37824
310 6.99448
315 9.46092
320 15.1346
325 25.6097
330 938.797
335 9999.9
340 9999.9
345 3569.34
350 447.608
355 76.3311
360 26.4311
365 17.5428
370 15.9082
375 16.213
380 16.8981
385 15.6761
390 13.4495
395 11.0308
400 10.2757
405 10.0974
410 9.44122
415 9.59367
420 9.35013
425 8.74013
430 8.69478
435 8.41951
440 8.36309
445 8.32678
450 8.34997
455 7.99475
460 7.90883
465 7.78374
470 7.75405
475 7.42743
480 7.24976
485 6.63401
490 6.42534
495 6.23572
500 6.01338
505 5.907
510 5.72472
515 5.63132
520 5.60112
525 5.42284
530 5.26278
535 5.44408
540 5.1169
545 4.87923
550 5.13674
555 5.2062
560 5.07959
565 4.87941
570 5.02123
575 4.66728
580 4.6708
585 4.80685
590 5.09122
595 5.22912
600 6.14367
Ex : 348
200 1.5356
205 1.54516
210 1.54638
215 1.47261
220 1.4255
225 1.83702
230 1.77344
235 1.7223
240 1.84145
245 1.80798
250 1.77729
255 2.02763
260 1.99842
265 2.28119
270 2.25019
275 2.18828
280 2.40621
285 2.61717
290 3.06182
295 3.42057
300 4.09046
305 4.54949
310 5.58392
315 7.23591
320 9.74017
325 14.832
330 25.6947
335 915.201
340 9999.9
345 9999.9
350 4081.04
355 507.78
360 83.9477
365 27.7223
370 18.3178
375 15.9953
380 15.3165
385 16.8702
390 16.1894
395 13.7882
400 11.4182
405 10.5966
410 9.64262
415 9.69321
420 9.41989
425 9.51652
430 8.70976
435 8.60901
440 8.37047
445 8.53294
450 8.26348
455 7.9771
460 8.02288
465 7.69008
470 7.43294
475 7.04466
480 7.09262
485 6.62392
490 6.61207
495 6.30795
500 5.98884
505 5.51203
510 5.53262
515 5.35959
520 5.15229
525 5.04414
530 4.71909
535 4.85216
540 4.85998
545 5.0001
550 4.67706
555 4.83978
560 4.53966
565 4.53215
570 4.44644
575 4.34149
580 4.35232
585 4.25007
590 4.31995
595 4.56615
600 4.72104
Ex : 353
200 1.48521
205 1.34876
210 1.54398
215 1.48098
220 1.42753
225 1.54092
230 1.47304
235 1.56526
240 1.56088
245 1.88455
250 1.7367
255 1.90649
260 1.94752
265 1.97408
270 2.07051
275 2.44296
280 2.47998
285 2.74922
290 2.82208
295 3.14875
300 3.66691
305 4.21697
310 4.97118
315 6.09728
320 7.57303
325 10.1897
330 15.2799
335 26.8792
340 973.918
345 9999.9
350 9999.9
355 4027.5
360 501.314
365 83.4479
370 28.2905
375 18.4268
380 15.4983
385 15.2598
390 16.3627
395 16.4529
400 14.4349
405 11.6306
410 10.2349
415 10.1395
420 9.95411
425 9.81151
430 9.04822
435 8.64396
440 8.8458
445 8.38955
450 8.52304
455 8.12196
460 7.86354
465 7.94715
470 7.54249
475 6.87932
480 6.72225
485 6.24278
490 6.24177
495 6.48936
500 6.03536
505 5.37593
510 5.38382
515 5.12427
520 5.14445
525 4.79579
530 4.58506
535 4.55157
540 4.53294
545 4.55241
550 4.2959
555 4.37332
560 4.25275
565 4.36538
570 4.32785
575 4.38868
580 4.11453
585 3.84994
590 3.94876
595 3.75225
600 2.85663
Ex : 358
200 1.38625
205 1.34954
210 1.40539
215 1.27912
220 1.33446
225 1.33544
230 1.44636
235 1.47653
240 1.55453
245 1.68349
250 1.64884
255 1.63384
260 1.94448
265 1.8946
270 2.04878
275 2.26649
280 2.3808
285 2.62012
290 2.88687
295 2.96181
300 3.23085
305 3.53259
310 4.01087
315 5.15695
320 6.1939
325 7.91866
330 10.4282
335 15.6737
340 27.1952
345 967.318
350 9999.9
355 9999.9
360 4170.98
365 519.245
370 85.6872
375 28.78
380 18.7869
385 15.299
390 14.2805
395 15.7114
400 16.19
405 14.8035
410 12.3219
415 10.6102
420 10.1827
425 10.0642
430 9.1731
435 9.04151
440 8.9284
445 8.88664
450 8.43022
455 8.15342
460 8.25183
465 7.68569
470 7.52056
475 7.18811
480 6.83117
485 6.64296
490 6.47116
495 6.07127
500 5.88574
505 5.48062
510 5.09953
515 5.13956
520 4.89226
525 4.66772
530 4.6553
535 4.46286
540 4.10242
545 4.25827
550 4.04044
555 4.1882
560 4.21236
565 4.10607
570 3.93521
575 4.05166
580 3.8663
585 3.30461
590 3.57394
595 3.47667
600 3.44591
Ex : 363
200 1.17303
205 1.38025
210 1.31397
215 1.37875
220 1.41186
225 1.51528
230 1.4016
235 1.43135
240 1.46579
245 1.45624
250 1.57269
255 1.64142
260 1.64001
265 1.69772
270 1.89963
275 1.83559
280 2.06483
285 2.33845
290 2.47193
295 2.70569
300 2.76226
305 3.09444
310 3.65327
315 4.21815
320 4.94843
325 6.1496
330 8.07757
335 10.7907
340 15.9254
345 27.4403
350 911.43
355 9999.9
360 9999.9
365 4474.19
370 556.238
375 89.9772
380 29.1656
385 18.6584
390 15.4406
395 14.3152
400 14.7868
405 15.4473
410 15.4846
415 12.4754
420 10.8219
425 10.0338
430 9.34902
435 8.88739
440 8.84053
445 8.72022
450 8.48068
455 8.087
460 7.753
465 7.46852
470 7.47627
475 6.92319
480 6.38387
485 6.55894
490 5.93901
495 5.74684
500 5.55722
505 5.12948
510 5.15396
515 4.67856
520 4.47195
525 4.58639
530 4.07743
535 4.20383
540 3.94959
545 3.88444
550 3.69321
555 3.5456
560 3.64751
565 3.71887
570 3.53153
575 3.57624
580 3.34454
585 3.25891
590 3.17473
595 3.11209
600 4.47868
Ex : 368
200 1.25207
205 1.28546
210 1.40765
215 1.32406
220 1.32478
225 1.33314
230 1.43953
235 1.32899
240 1.47636
245 1.5767
250 1.52749
255 1.7603
260 1.58531
265 1.55935
270 1.67105
275 1.88798
280 2.0385
285 2.34485
290 2.22755
295 2.54063
300 2.678
305 2.85391
310 3.2095
315 3.79211
320 4.22233
325 5.04159
330 6.44714
335 8.10872
340 11.1337
345 16.6807
350 28.3397
355 802.263
360 9999.9
365 9999.9
370 5024.02
375 624.372
380 98.7138
385 31.0586
390 19.6664
395 16.3554
400 13.6409
405 14.1209
410 15.318
415 15.3454
420 13.395
425 11.1431
430 10.0103
435 9.53026
440 8.92468
445 8.77882
450 8.3481
455 8.32927
460 7.57939
465 7.5251
470 7.53447
475 6.67577
480 6.49185
485 6.14296
490 6.079
495 5.57937
500 5.35969
505 4.94494
510 4.90248
515 4.54697
520 4.51846
525 4.36442
530 3.92914
535 3.87077
540 3.73981
545 3.74621
550 3.50477
555 3.57315
560 3.62007
565 3.62786
570 3.42191
575 3.35502
580 3.04768
585 3.11384
590 2.95459
595 2.92655
600 2.58289
Ex : 373
200 1.16879
205 1.16701
210 1.28474
215 1.29799
220 1.23952
225 1.33782
230 1.27566
235 1.4779
240 1.46411
245 1.45641
250 1.52139
255 1.51435
260 1.67205
265 1.74452
270 1.67218
275 1.82853
280 1.94725
285 1.96957
290 2.22375
295 2.12963
300 2.48477
305 2.72987
310 2.90143
315 3.36357
320 3.87694
325 4.36961
330 5.21538
335 6.91875
340 8.29853
345 11.7716
350 17.079
355 28.8195
360 990.633
365 9999.9
370 9999.9
375 5067.41
380 625.894
385 99.4171
390 32.2451
395 20.2184
400 16.2237
405 13.4281
410 13.3696
415 15.4713
420 15.1677
425 14.0664
430 11.1728
435 9.99662
440 9.3288
445 8.96147
450 8.90741
455 8.4854
460 8.24965
465 7.75032
470 7.25419
475 7.16257
480 6.56468
485 6.56293
490 6.09858
495 5.57266
500 5.23166
505 5.11032
510 4.69194
515 4.59374
520 4.35434
525 4.15932
530 3.9494
535 3.95445
540 3.5658
545 3.60435
550 3.55811
555 3.40678
560 3.32664
565 3.23541
570 3.00954
575 3.22145
580 3.08303
585 2.81872
590 2.79689
595 2.74575
600 3.35981
Ex : 378
200 1.17391
205 1.22176
210 1.12889
215 1.30019
220 1.30454
225 1.28488
230 1.36839
235 1.22772
240 1.22073
245 1.32421
250 1.35282
255 1.46682
260 1.53405
265 1.64233
270 1.75267
275 1.69111
280 1.81249
285 1.82899
290 1.93063
295 2.15704
300 2.20619
305 2.56194
310 2.89242
315 3.33817
320 3.49845
325 3.95756
330 4.73187
335 5.43207
340 6.75653
345 8.82404
350 11.7246
355 17.5371
360 30.2028
365 975.833
370 9999.9
375 9999.9
380 5248.32
385 650.512
390 103.539
395 32.5805
400 20.2835
405 15.9825
410 13.1694
415 12.6077
420 14.0958
425 14.6082
430 13.7784
435 11.6509
440 9.89764
445 9.32663
450 8.93502
455 8.5684
460 8.2384
465 7.90525
470 7.33913
475 6.73433
480 6.73517
485 6.22687
490 5.88108
495 5.22365
500 4.98384
505 4.61496
510 4.62667
515 4.48555
520 4.38183
525 3.96286
530 3.8612
535 3.72259
540 3.50971
545 3.29692
550 3.18728
555 3.23688
560 3.31016
565 2.93697
570 2.81689
575 2.73958
580 2.65101
585 2.67604
590 2.39619
595 2.35501
600 3.15049
Ex : 383
200 1.08904
205 1.19083
210 1.34298
215 1.24591
220 1.3511
225 1.3102
230 1.29315
235 1.19117
240 1.2993
245 1.36684
250 1.41502
255 1.41146
260 1.48257
265 1.45888
270 1.61757
275 1.61024
280 1.78133
285 1.8873
290 2.03016
295 2.09814
300 2.22021
305 2.44541
310 2.54512
315 2.77768
320 3.00546
325 3.69276
330 4.24917
335 4.71119
340 5.69185
345 6.88167
350 9.06732
355 12.0704
360 18.1115
365 30.6655
370 945.454
375 9999.9
380 9999.9
385 5575.45
390 691.119
395 108.813
400 33.3548
405 20.8392
410 16.6727
415 13.2861
420 12.4306
425 13.3597
430 14.2589
435 13.9206
440 12.1424
445 10.2458
450 9.39221
455 9.08257
460 8.40809
465 7.96887
470 7.52115
475 6.68127
480 6.36742
485 6.32635
490 5.74104
495 5.30877
500 5.24067
505 4.79667
510 4.36037
515 4.2903
520 4.15778
525 3.83301
530 3.70817
535 3.60195
540 3.35712
545 3.28391
550 3.21799
555 2.97428
560 2.82463
565 2.81378
570 2.77664
575 2.76204
580 2.57963
585 2.42022
590 2.33683
595 2.4137
600 2.2844
Ex : 388
200 1.22884
205 1.21396
210 1.15393
215 1.3114
220 1.42743
225 1.295
230 1.30173
235 1.34035
240 1.44232
245 1.36446
250 1.33299
255 1.44965
260 1.436
265 1.6485
270 1.66166
275 1.63292
280 1.71695
285 1.81626
290 1.96372
295 1.86023
300 2.1274
305 2.42844
310 2.52544
315 2.75751
320 2.87798
325 3.28401
330 3.82593
335 4.22981
340 5.18499
345 6.01574
350 7.29429
355 9.11272
360 12.4448
365 18.6819
370 32.1052
375 1027.73
380 9999.9
385 9999.9
390 5864.42
395 723.851
400 112.522
405 34.169
410 21.0462
415 16.6733
420 13.2776
425 12.1642
430 13.0749
435 14.108
440 13.813
445 13.0038
450 10.7523
455 9.55968
460 8.72807
465 8.36467
470 7.60985
475 7.11867
480 6.91592
485 6.14939
490 5.95362
495 5.40017
500 5.28308
505 4.79375
510 4.52639
515 4.4211
520 3.97202
525 3.82522
530 3.74219
535 3.48284
540 3.46912
545 3.30176
550 3.20304
555 3.01984
560 3.06015
565 2.7022
570 2.87646
575 2.65223
580 2.63599
585 2.42026
590 2.20297
595 2.20784
600 2.29097
Ex : 393
200 1.24457
205 1.2137
210 1.29825
215 1.23994
220 1.34492
225 1.48378
230 1.27521
235 1.3959
240 1.35588
245 1.4342
250 1.45126
255 1.56898
260 1.53638
265 1.52991
270 1.57772
275 1.73656
280 1.78737
285 1.76234
290 2.0983
295 2.20273
300 2.24284
305 2.23103
310 2.46095
315 2.73723
320 2.89201
325 3.26221
330 3.60249
335 4.14151
340 4.51006
345 5.19929
350 6.38701
355 7.56129
360 9.51825
365 13.1619
370 19.4641
375 33.2496
380 1007.95
385 9999.9
390 9999.9
395 6196.34
400 765.233
405 117.863
410 35.2479
415 21.4269
420 16.6378
425 13.4971
430 11.9044
435 12.2458
440 13.4935
445 13.7364
450 13.015
455 11.0124
460 9.19538
465 8.74127
470 7.85248
475 7.02858
480 6.93226
485 6.44751
490 6.13383
495 5.48904
500 5.19125
505 5.01798
510 4.59741
515 4.48237
520 4.20329
525 3.98546
530 3.99488
535 3.56714
540 3.39566
545 3.54615
550 3.28261
555 3.20421
560 3.13372
565 2.72148
570 2.72323
575 2.55301
580 2.51264
585 2.45702
590 2.3246
595 2.22866
600 1.73894
Ex : 398
200 1.18874
205 1.28424
210 1.32281
215 1.27932
220 1.35601
225 1.31153
230 1.27645
235 1.36257
240 1.55656
245 1.4679
250 1.47366
255 1.53183
260 1.46861
265 1.44514
270 1.53978
275 1.57446
280 1.71967
285 1.97632
290 1.77786
295 2.06311
300 2.1007
305 2.2161
310 2.48995
315 2.47166
320 2.87969
325 3.10716
330 3.31564
335 3.67082
340 4.05225
345 4.59986
350 5.24077
355 6.31776
360 8.08936
365 10.2026
370 13.2518
375 20.1947
380 33.0306
385 1068.12
390 9999.9
395 9999.9
400 6426.28
405 791.077
410 120.764
415 35.0823
420 21.0303
425 16.5373
430 13.2244
435 11.7779
440 11.3172
445 13.0726
450 13.2592
455 12.9245
460 11.1279
465 9.35247
470 7.94936
475 7.24524
480 6.84761
485 6.37683
490 5.95728
495 5.54503
500 5.13407
505 4.82645
510 4.56625
515 4.51562
520 4.2603
525 3.93183
530 3.86083
535 3.55233
540 3.40489
545 3.39456
550 3.21255
555 3.04351
560 3.07881
565 2.81596
570 2.70114
575 2.58729
580 2.46543
585 2.32889
590 2.29679
595 2.28658
600 1.62011
Ex : 403
200 1.19001
205 1.26277
210 1.32026
215 1.37048
220 1.30218
225 1.38008
230 1.32956
235 1.26743
240 1.32136
245 1.34803
250 1.40298
255 1.36186
260 1.48544
265 1.46738
270 1.48588
275 1.58782
280 1.67993
285 1.83292
290 1.82151
295 1.90082
300 2.19193
305 2.09657
310 2.26228
315 2.44692
320 2.72459
325 2.89886
330 3.18243
335 3.59393
340 3.83941
345 4.23915
350 4.94696
355 5.54862
360 6.54793
365 8.21847
370 10.5291
375 14.1184
380 20.8287
385 35.825
390 1186.8
395 9999.9
400 9999.9
405 6591.77
410 809.71
415 123.64
420 36.0931
425 21.2543
430 16.7777
435 13.1896
440 11.3751
445 11.2537
450 12.2802
455 12.8067
460 12.642
465 11.7481
470 9.27927
475 7.90061
480 7.1815
485 6.58989
490 6.11942
495 5.65035
500 5.33483
505 4.86895
510 4.7227
515 4.62533
520 4.41853
525 4.01509
530 3.77077
535 3.68454
540 3.33819
545 3.30241
550 3.3247
555 3.13373
560 2.98621
565 2.85915
570 2.8036
575 2.52811
580 2.42538
585 2.36669
590 2.19952
595 2.1395
600 2.09476
Ex : 408
200 1.19506
205 1.1134
210 1.19023
215 1.24562
220 1.29851
225 1.2963
230 1.32155
235 1.29902
240 1.35686
245 1.32875
250 1.34031
255 1.42434
260 1.53067
265 1.57305
270 1.44037
275 1.46303
280 1.68639
285 1.70007
290 1.78566
295 1.91445
300 1.93339
305 1.9688
310 2.16959
315 2.43316
320 2.5386
325 2.78069
330 2.9254
335 3.13375
340 3.50866
345 3.74152
350 4.30444
355 5.10224
360 5.79126
365 6.7118
370 8.32292
375 10.7041
380 14.395
385 21.6887
390 37.6538
395 1175.63
400 9999.9
405 9999.9
410 6402.63
415 788.873
420 120.538
425 35.0575
430 21.6592
435 16.3695
440 12.6177
445 11.5518
450 11.1989
455 12.0124
460 12.9806
465 12.1486
470 11.4026
475 9.32328
480 7.68857
485 6.69368
490 6.22432
495 5.79299
500 5.39152
505 5.16887
510 4.65065
515 4.59383
520 4.31614
525 3.85091
530 3.64917
535 3.39351
540 3.51254
545 3.34788
550 3.12757
555 3.13515
560 2.94453
565 2.75708
570 2.64605
575 2.57536
580 2.361
585 2.36052
590 2.13574
595 2.07115
600 1.0885
Ex : 413
200 1.11301
205 1.08252
210 1.08856
215 1.21003
220 1.12461
225 1.32851
230 1.29035
235 1.26077
240 1.25338
245 1.31309
250 1.3579
255 1.48771
260 1.46524
265 1.4229
270 1.36361
275 1.46688
280 1.68727
285 1.66523
290 1.71953
295 1.72865
300 1.96275
305 1.98498
310 2.03992
315 2.34362
320 2.34651
325 2.4968
330 2.62006
335 3.08019
340 3.39248
345 3.74798
350 3.79889
355 4.34245
360 4.94718
365 5.85715
370 6.7817
375 8.59554
380 10.8866
385 14.7703
390 22.6912
395 38.7604
400 1334.78
405 9999.9
410 9999.9
415 6252.16
420 767.852
425 117.204
430 34.3316
435 20.7485
440 16.135
445 12.5339
450 11.2178
455 10.4989
460 11.3135
465 12.4264
470 11.672
475 10.6523
480 9.19455
485 7.47527
490 6.43157
495 6.01995
500 5.36561
505 4.91283
510 4.77977
515 4.50042
520 4.18417
525 4.05819
530 3.75456
535 3.40825
540 3.3233
545 3.29292
550 3.24232
555 3.10836
560 2.96934
565 2.68635
570 2.69738
575 2.60689
580 2.30896
585 2.10532
590 2.18874
595 2.02539
600 1.80033
Ex : 418
200 1.14574
205 1.21018
210 1.18815
215 1.20538
220 1.14821
225 1.22416
230 1.24622
235 1.30503
240 1.28543
245 1.24227
250 1.31636
255 1.44158
260 1.43659
265 1.46723
270 1.56659
275 1.49419
280 1.58675
285 1.65185
290 1.66714
295 1.76066
300 1.80679
305 2.01025
310 2.22366
315 2.20047
320 2.38148
325 2.39723
330 2.72842
335 2.82377
340 3.09106
345 3.38671
350 3.73476
355 4.19386
360 4.56047
365 5.12774
370 5.98105
375 7.29929
380 8.71993
385 11.3401
390 15.6695
395 23.2955
400 40.0011
405 1264.31
410 9999.9
415 9999.9
420 6627.8
425 812.25
430 123.621
435 35.4966
440 21.4689
445 16.6085
450 13.1961
455 11.3197
460 10.8191
465 10.7886
470 11.3906
475 11.0793
480 10.5535
485 9.35174
490 7.45174
495 6.30122
500 5.62903
505 5.2078
510 4.90706
515 4.55096
520 4.26614
525 4.01093
530 3.8513
535 3.7719
540 3.54934
545 3.29331
550 3.18875
555 3.16154
560 2.91102
565 2.85039
570 2.7388
575 2.54733
580 2.46748
585 2.17137
590 2.17787
595 2.0263
600 2.08607
Ex : 423
200 1.10392
205 1.15096
210 1.1419
215 1.12314
220 1.21806
225 1.15307
230 1.26786
235 1.23133
240 1.35062
245 1.3341
250 1.29202
255 1.31867
260 1.46631
265 1.42964
270 1.33188
275 1.49115
280 1.64256
285 1.557
290 1.7323
295 1.70286
300 1.92646
305 1.89672
310 1.84408
315 2.07023
320 2.27396
325 2.26147
330 2.60754
335 2.77971
340 2.87522
345 3.19274
350 3.48377
355 3.87989
360 4.19607
365 4.7313
370 5.45555
375 6.21098
380 7.41222
385 9.38082
390 12.3931
395 16.4961
400 23.9472
405 40.5787
410 1294.58
415 9999.9
420 9999.9
425 6472.49
430 797.169
435 121.521
440 35.2511
445 21.8308
450 16.6317
455 13.0629
460 11.7267
465 10.9772
470 10.3266
475 10.5734
480 10.7648
485 9.81687
490 8.90071
495 7.3759
500 6.01573
505 5.35621
510 4.85393
515 4.70854
520 4.29982
525 4.18804
530 3.90885
535 3.65818
540 3.50122
545 3.31448
550 3.16956
555 3.06424
560 2.98213
565 2.83706
570 2.6285
575 2.43962
580 2.24383
585 2.26148
590 2.08161
595 2.15588
600 2.11122
Ex : 428
200 1.13074
205 1.17061
210 1.30009
215 1.12033
220 1.11216
225 1.20075
230 1.17279
235 1.24922
240 1.25703
245 1.26824
250 1.27471
255 1.29819
260 1.28466
265 1.46026
270 1.51068
275 1.63339
280 1.54932
285 1.50685
290 1.66771
295 1.66269
300 1.73161
305 1.76807
310 1.90745
315 2.03387
320 2.22956
325 2.33219
330 2.3413
335 2.60631
340 2.74346
345 3.01981
350 3.35171
355 3.56334
360 3.96155
365 4.27457
370 4.6342
375 5.63798
380 6.55452
385 7.70158
390 9.66247
395 12.7298
400 17.114
405 25.1164
410 42.666
415 1459.28
420 9999.9
425 9999.9
430 6811.33
435 836.024
440 127.614
445 37.4185
450 22.4318
455 17.4047
460 13.3129
465 11.674
470 10.3762
475 9.99453
480 10.105
485 10.5703
490 9.8363
495 8.86633
500 7.94011
505 6.3431
510 5.50439
515 4.87669
520 4.75432
525 4.25744
530 3.86211
535 3.79237
540 3.64073
545 3.46819
550 3.12469
555 3.13605
560 2.9798
565 2.95591
570 2.80198
575 2.45608
580 2.36651
585 2.34166
590 2.19669
595 2.18662
600 2.07775
Ex : 433
200 1.10851
205 1.225
210 1.29566
215 1.20734
220 1.17781
225 1.17609
230 1.17007
235 1.38482
240 1.31554
245 1.32289
250 1.28575
255 1.43182
260 1.28753
265 1.30136
270 1.47978
275 1.4896
280 1.67127
285 1.72204
290 1.75285
295 1.68793
300 1.8279
305 2.09068
310 1.99876
315 2.01463
320 2.30811
325 2.17316
330 2.41864
335 2.61362
340 2.73781
345 3.14548
350 3.16806
355 3.55146
360 3.59466
365 4.04758
370 4.62638
375 4.99099
380 5.65945
385 6.73188
390 8.15583
395 10.2547
400 13.2202
405 17.6688
410 25.7417
415 43.924
420 1595.27
425 9999.9
430 9999.9
435 6423
440 789.594
445 123.478
450 37.1739
455 22.7046
460 18.0202
465 14.0188
470 11.5382
475 9.98898
480 9.6904
485 9.7387
490 10.2845
495 9.21799
500 8.29698
505 7.73798
510 6.38783
515 5.33728
520 4.66714
525 4.45749
530 3.94749
535 3.65589
540 3.51547
545 3.58105
550 3.23798
555 3.3038
560 3.00376
565 2.84434
570 2.76181
575 2.61957
580 2.42107
585 2.24282
590 2.19226
595 2.2027
600 2.48977
Ex : 438
200 1.15695
205 1.1447
210 1.24725
215 1.1244
220 1.29018
225 1.13073
230 1.20267
235 1.22749
240 1.30737
245 1.29978
250 1.35013
255 1.2669
260 1.4151
265 1.35626
270 1.43966
275 1.52535
280 1.62707
285 1.60427
290 1.64741
295 1.72265
300 1.83286
305 1.84773
310 1.99676
315 1.95388
320 1.96553
325 2.17509
330 2.25993
335 2.55078
340 2.53414
345 2.70448
350 2.98759
355 3.16972
360 3.62185
365 3.88874
370 4.05236
375 4.64975
380 5.12912
385 6.15085
390 6.94112
395 8.58569
400 10.4643
405 13.0871
410 17.9524
415 26.7969
420 43.9981
425 1531.85
430 9999.9
435 9999.9
440 6784.47
445 835.466
450 129.87
455 38.644
460 23.5861
465 18.6761
470 13.9273
475 11.0321
480 10.0414
485 9.528
490 9.3604
495 9.90319
500 9.43013
505 8.34766
510 7.59274
515 6.4085
520 5.2634
525 4.78086
530 4.39287
535 4.14692
540 3.95134
545 3.71347
550 3.47417
555 3.27927
560 3.02842
565 2.96213
570 2.77808
575 2.58413
580 2.43626
585 2.23812
590 2.18418
595 2.06008
600 2.3239
Ex : 443
200 1.20886
205 1.2112
210 1.25222
215 1.25244
220 1.23913
225 1.2078
230 1.1986
235 1.32267
240 1.24772
245 1.35938
250 1.32823
255 1.44341
260 1.53965
265 1.44724
270 1.40332
275 1.43271
280 1.58715
285 1.70254
290 1.58351
295 1.71275
300 1.78892
305 1.79489
310 1.9645
315 2.0418
320 2.16218
325 2.08057
330 2.2065
335 2.50254
340 2.39432
345 2.6583
350 3.08765
355 3.13199
360 3.45665
365 3.60025
370 4.11407
375 4.40978
380 4.80119
385 5.73197
390 6.38994
395 7.54717
400 8.79605
405 10.7606
410 13.775
415 18.689
420 27.1824
425 44.8865
430 1703.2
435 9999.9
440 9999.9
445 6805.76
450 837.249
455 130.652
460 39.8304
465 25.0765
470 18.042
475 13.0284
480 11.0168
485 10.0938
490 9.29892
495 8.8072
500 9.21098
505 8.9626
510 7.93806
515 7.63387
520 6.74812
525 5.52972
530 4.77014
535 4.36803
540 4.0206
545 3.71329
550 3.69254
555 3.52421
560 3.44613
565 3.14237
570 3.06962
575 2.63526
580 2.74878
585 2.48619
590 2.24751
595 2.18487
600 1.80476
Ex : 448
200 1.1754
205 1.25355
210 1.31724
215 1.22304
220 1.26326
225 1.25069
230 1.28677
235 1.13095
240 1.20955
245 1.2237
250 1.37056
255 1.35554
260 1.45107
265 1.38045
270 1.41052
275 1.4457
280 1.63357
285 1.70079
290 1.7878
295 1.88795
300 1.90967
305 1.85622
310 1.9625
315 1.95874
320 2.12873
325 2.24134
330 2.288
335 2.57271
340 2.72198
345 2.81061
350 2.89193
355 3.25497
360 3.21677
365 3.39432
370 3.99437
375 4.25842
380 4.5919
385 5.32001
390 5.87951
395 6.68931
400 7.61411
405 9.23386
410 10.8811
415 14.354
420 18.9841
425 27.3807
430 46.4675
435 1764.84
440 9999.9
445 9999.9
450 6773.71
455 833.499
460 131.441
465 41.1976
470 24.8703
475 18.0871
480 12.9057
485 11.0456
490 9.90961
495 9.31991
500 8.80676
505 8.93335
510 8.97228
515 7.78623
520 7.34023
525 6.72983
530 5.57835
535 4.75389
540 4.20845
545 4.0684
550 3.73081
555 3.57389
560 3.40402
565 3.18256
570 2.87011
575 2.70897
580 2.6071
585 2.6657
590 2.39001
595 2.26118
600 1.90722
Ex : 453
200 1.20859
205 1.24752
210 1.29159
215 1.34791
220 1.31404
225 1.23366
230 1.32083
235 1.30143
240 1.32623
245 1.36215
250 1.49065
255 1.43443
260 1.30678
265 1.41609
270 1.37182
275 1.43354
280 1.6681
285 1.70485
290 1.83411
295 1.88977
300 1.83434
305 1.94039
310 2.07571
315 2.08918
320 2.09845
325 2.22192
330 2.41819
335 2.68391
340 2.51449
345 2.61096
350 2.82079
355 3.0176
360 3.19508
365 3.58694
370 3.94508
375 4.00707
380 4.59375
385 4.92957
390 5.27585
395 6.16036
400 6.90612
405 7.92002
410 9.60365
415 11.1405
420 14.1162
425 19.2319
430 27.6946
435 46.8241
440 1893.45
445 9999.9
450 9999.9
455 6537.85
460 808.812
465 131.38
470 40.0434
475 23.4402
480 17.6049
485 12.6781
490 10.5867
495 9.75819
500 9.22506
505 8.58302
510 8.39211
515 8.63738
520 8.12319
525 7.06514
530 6.71651
535 5.68862
540 4.82592
545 4.15401
550 4.01913
555 3.73444
560 3.35506
565 3.30389
570 2.94338
575 2.83955
580 2.67748
585 2.58032
590 2.26504
595 2.12757
600 1.85565
Ex : 458
200 1.41484
205 1.27859
210 1.36546
215 1.27223
220 1.31471
225 1.29239
230 1.39778
235 1.30174
240 1.36827
245 1.33653
250 1.29047
255 1.43483
260 1.40962
265 1.42955
270 1.37492
275 1.57623
280 1.64099
285 1.72572
290 1.75176
295 1.84892
300 1.92914
305 1.92175
310 2.04615
315 1.96884
320 2.06833
325 2.09331
330 2.3629
335 2.45401
340 2.38739
345 2.86243
350 2.90612
355 3.00762
360 3.16412
365 3.42354
370 3.56834
375 4.00612
380 4.17928
385 4.68861
390 5.02396
395 5.53522
400 6.09222
405 6.89792
410 8.08127
415 9.65191
420 11.553
425 14.5283
430 19.6313
435 28.1045
440 49.2739
445 2040.95
450 9999.9
455 9999.9
460 6902.72
465 855.169
470 134.459
475 38.7206
480 23.2739
485 17.3795
490 12.7183
495 10.5292
500 9.47858
505 9.06874
510 8.32086
515 7.85806
520 8.09904
525 7.7442
530 7.22637
535 6.17326
540 5.95638
545 5.01447
550 4.27131
555 3.974
560 3.61251
565 3.44688
570 3.24266
575 3.09926
580 2.77242
585 2.54793
590 2.50403
595 2.51882
600 3.22428
Ex : 463
200 1.22742
205 1.31796
210 1.32828
215 1.45211
220 1.29666
225 1.36628
230 1.41076
235 1.42244
240 1.38399
245 1.35559
250 1.48563
255 1.35243
260 1.37947
265 1.42817
270 1.42452
275 1.58733
280 1.63403
285 1.58415
290 1.78748
295 1.74673
300 1.80522
305 1.90102
310 2.10813
315 2.11585
320 2.06418
325 2.12875
330 2.30709
335 2.38624
340 2.48228
345 2.62645
350 2.88599
355 2.94792
360 3.06817
365 3.22371
370 3.48979
375 3.70695
380 4.06265
385 4.41774
390 4.647
395 5.2416
400 5.47481
405 6.0984
410 7.17381
415 8.2085
420 9.34458
425 11.1594
430 14.2949
435 19.0804
440 27.4026
445 49.2325
450 1978.3
455 9999.9
460 9999.9
465 7016.03
470 865.899
475 131.678
480 38.1984
485 22.721
490 16.9941
495 11.8724
500 10.0305
505 9.17267
510 8.68893
515 8.43383
520 7.81531
525 7.65342
530 7.80305
535 6.76886
540 6.2443
545 5.95763
550 5.232
555 4.35551
560 3.83292
565 3.46028
570 3.32061
575 3.1821
580 2.77492
585 2.82017
590 2.49857
595 2.45612
600 3.27724
Ex : 468
200 1.29627
205 1.28527
210 1.34582
215 1.39698
220 1.37102
225 1.45337
230 1.5149
235 1.48627
240 1.46082
245 1.55166
250 1.2827
255 1.3929
260 1.43004
265 1.46853
270 1.50738
275 1.5207
280 1.63535
285 1.59924
290 1.60299
295 1.6723
300 1.73859
305 1.8554
310 2.03658
315 2.11319
320 2.05577
325 2.19302
330 2.16277
335 2.42443
340 2.4661
345 2.6085
350 2.73863
355 2.9285
360 2.901
365 3.09839
370 3.24907
375 3.4697
380 3.74312
385 3.99392
390 4.39997
395 4.8131
400 5.12936
405 5.64073
410 6.20644
415 7.06389
420 8.13764
425 9.26497
430 11.3522
435 14.3881
440 19.5605
445 28.7349
450 49.407
455 2232.46
460 9999.9
465 9999.9
470 6981.69
475 856.041
480 131.235
485 37.4654
490 22.2485
495 16.2646
500 11.7668
505 9.99384
510 9.11869
515 8.93573
520 8.05729
525 7.51091
530 7.19777
535 7.24693
540 6.91795
545 6.01052
550 5.74389
555 5.08335
560 4.45616
565 3.97825
570 3.46019
575 3.24823
580 3.09156
585 2.98606
590 2.5844
595 2.61373
600 2.23445
Ex : 473
200 1.3521
205 1.33459
210 1.38815
215 1.41964
220 1.43117
225 1.40774
230 1.73715
235 1.59975
240 1.45838
245 1.49417
250 1.51045
255 1.52463
260 1.53786
265 1.5644
270 1.52187
275 1.66791
280 1.58517
285 1.5713
290 1.65
295 1.71465
300 1.71955
305 1.91209
310 2.0199
315 2.18498
320 2.15529
325 2.29884
330 2.39063
335 2.23791
340 2.42459
345 2.62208
350 2.69256
355 2.88603
360 2.92645
365 3.05295
370 3.27421
375 3.5195
380 3.63215
385 4.0662
390 4.47565
395 4.78688
400 4.93176
405 5.44968
410 6.1194
415 6.68447
420 7.24808
425 8.27982
430 9.48682
435 11.4291
440 15.0248
445 20.2721
450 29.4462
455 51.7042
460 2398.09
465 9999.9
470 9999.9
475 6782.95
480 831.773
485 127.975
490 37.2254
495 22.0098
500 15.5683
505 11.251
510 9.50795
515 8.99523
520 8.66851
525 8.305
530 7.5812
535 6.9383
540 7.14085
545 6.76635
550 5.96923
555 5.52806
560 5.13602
565 4.37183
570 3.74039
575 3.3832
580 3.03715
585 2.94602
590 2.66259
595 2.60812
600 1.95726
Ex : 478
200 1.28443
205 1.45363
210 1.40684
215 1.40599
220 1.4794
225 1.44216
230 1.69016
235 1.92833
240 1.53615
245 1.51918
250 1.31252
255 1.5586
260 1.53531
265 1.54439
270 1.62934
275 1.58997
280 1.71397
285 1.64192
290 1.75523
295 1.83324
300 1.73889
305 1.83376
310 2.00485
315 2.0429
320 2.24485
325 2.29452
330 2.41133
335 2.46004
340 2.4821
345 2.74713
350 2.69224
355 2.69363
360 2.9621
365 3.05287
370 3.38459
375 3.7256
380 3.8869
385 4.41443
390 4.71309
395 4.7272
400 5.1216
405 5.7236
410 6.0097
415 6.1657
420 7.0972
425 7.86675
430 8.83772
435 10.5806
440 12.7887
445 17.2824
450 23.3348
455 34.421
460 61.8951
465 2730.33
470 9999.9
475 9999.9
480 7392.64
485 905.468
490 139.359
495 39.7351
500 22.9529
505 16.6635
510 12.3885
515 10.1233
520 9.24012
525 9.1525
530 8.44114
535 7.83266
540 7.17396
545 6.99946
550 6.46337
555 5.90952
560 5.50642
565 5.24896
570 4.57399
575 3.75103
580 3.29303
585 3.06805
590 2.87063
595 2.8298
600 2.85203
Ex : 483
200 1.35779
205 1.42306
210 1.40726
215 1.53009
220 1.42296
225 1.59124
230 1.46213
235 2.1321
240 2.00737
245 1.51497
250 1.58365
255 1.67353
260 1.60244
265 1.59397
270 1.57768
275 1.72902
280 1.74192
285 1.74568
290 1.78852
295 1.8291
300 1.79501
305 1.9225
310 1.90299
315 1.92658
320 2.30077
325 2.3136
330 2.30221
335 2.48492
340 2.46354
345 2.60803
350 2.57166
355 2.9486
360 3.05625
365 3.17529
370 3.2396
375 3.29984
380 3.71987
385 4.07851
390 4.48111
395 4.60202
400 4.82662
405 5.14849
410 5.62415
415 6.11098
420 6.63843
425 7.10964
430 8.04978
435 9.25903
440 10.6403
445 13.0129
450 17.1784
455 23.2588
460 35.5018
465 63.675
470 2149.8
475 9999.9
480 9999.9
485 7674.95
490 938.622
495 141.81
500 39.5043
505 22.9408
510 17.1576
515 12.4257
520 10.3142
525 9.11576
530 9.01692
535 8.56749
540 7.80228
545 6.98115
550 6.66919
555 6.59515
560 6.10012
565 5.31032
570 5.02851
575 4.34001
580 3.83502
585 3.31691
590 3.04341
595 2.79151
600 2.33764
Ex : 488
200 1.39824
205 1.35801
210 1.50033
215 1.48055
220 1.34104
225 1.40896
230 1.42729
235 1.92875
240 2.48145
245 1.62242
250 1.56946
255 1.55912
260 1.55339
265 1.6113
270 1.54372
275 1.68211
280 1.65225
285 1.85945
290 1.94557
295 1.78051
300 2.01166
305 1.92628
310 1.93814
315 2.02091
320 2.06396
325 2.14514
330 2.48488
335 2.56518
340 2.66658
345 2.71754
350 2.66974
355 2.87566
360 3.05715
365 3.03183
370 3.15845
375 3.27133
380 3.58215
385 4.03004
390 4.39478
395 4.553
400 4.8176
405 5.07826
410 5.64545
415 6.02934
420 6.32412
425 6.99447
430 7.7916
435 8.53164
440 9.6682
445 11.6824
450 14.5654
455 18.7649
460 26.5906
465 41.2991
470 64.8245
475 2565.37
480 9999.9
485 9999.9
490 7612.48
495 931.811
500 141.652
505 39.9971
510 24.1995
515 17.1486
520 12.68
525 10.6008
530 9.70548
535 8.96699
540 8.59703
545 7.66395
550 7.21514
555 6.74396
560 6.74246
565 6.08582
570 5.24817
575 4.5347
580 4.38693
585 3.92176
590 3.42991
595 3.08029
600 2.38941
Ex : 493
200 1.45882
205 1.44658
210 1.42518
215 1.48441
220 1.54875
225 1.48805
230 1.56794
235 1.52482
240 2.57545
245 2.1139
250 1.63832
255 1.58498
260 1.66193
265 1.62153
270 1.52114
275 1.60315
280 1.64315
285 1.71567
290 1.8218
295 1.81328
300 1.98233
305 1.82482
310 1.91881
315 2.00931
320 2.11975
325 2.3199
330 2.42623
335 2.63439
340 2.49917
345 2.67392
350 2.85053
355 2.79006
360 2.817
365 2.84918
370 3.28147
375 3.25738
380 3.52959
385 3.84604
390 4.06964
395 4.52637
400 4.80589
405 5.20277
410 5.35348
415 5.8344
420 5.94141
425 6.49698
430 7.13759
435 7.79705
440 8.73917
445 10.1059
450 11.9569
455 14.7941
460 19.4915
465 28.0595
470 38.3358
475 61.1584
480 2459.61
485 9999.9
490 9999.9
495 7520.9
500 917.87
505 139.065
510 39.8112
515 23.9697
520 16.9858
525 12.2422
530 10.0541
535 9.35004
540 9.13622
545 8.37677
550 7.88607
555 7.07358
560 6.56825
565 5.88895
570 5.84034
575 5.11413
580 4.52206
585 3.95477
590 3.64729
595 3.51512
600 2.24444
Ex : 498
200 1.56066
205 1.56035
210 1.45487
215 1.53394
220 1.54039
225 1.58402
230 1.54825
235 1.54001
240 2.05143
245 2.53144
250 1.78686
255 1.77163
260 1.7417
265 1.69349
270 1.86743
275 1.65535
280 1.65672
285 1.80617
290 1.84749
295 2.04038
300 1.85684
305 1.82377
310 1.99781
315 1.85503
320 2.10293
325 2.16306
330 2.26161
335 2.45578
340 2.5562
345 2.48149
350 2.59865
355 2.72182
360 2.7812
365 3.06557
370 3.20004
375 3.37067
380 3.36652
385 3.77147
390 4.18673
395 4.41624
400 4.78345
405 5.1298
410 5.5623
415 5.78775
420 5.73538
425 6.09966
430 6.44195
435 7.17702
440 8.3428
445 9.60182
450 10.905
455 12.4149
460 16.5319
465 22.31
470 28.0488
475 38.2545
480 64.3746
485 2900.67
490 9999.9
495 9999.9
500 7687.75
505 939.645
510 142.655
515 40.7065
520 23.864
525 17.1284
530 12.8644
535 10.637
540 9.45686
545 9.02109
550 8.61226
555 7.80659
560 6.97172
565 6.26529
570 5.8636
575 5.36024
580 4.95925
585 4.50796
590 3.93366
595 3.6094
600 3.40421
Ex : 503
200 1.45968
205 1.56897
210 1.5055
215 1.53587
220 1.49604
225 1.66889
230 1.61422
235 1.62069
240 1.72077
245 2.78764
250 2.13042
255 1.56505
260 1.50719
265 1.59957
270 1.74488
275 1.67315
280 1.82462
285 1.76767
290 1.78607
295 1.84145
300 1.82011
305 1.85515
310 1.90403
315 1.90915
320 2.16188
325 2.12596
330 2.22836
335 2.45222
340 2.45864
345 2.85391
350 2.83136
355 2.93145
360 2.95143
365 2.86633
370 3.0935
375 3.3235
380 3.33791
385 3.68537
390 3.92403
395 4.26787
400 4.56192
405 4.74681
410 5.09713
415 5.3029
420 5.52316
425 6.16607
430 6.60682
435 7.09772
440 7.82927
445 8.38981
450 9.88779
455 11.5438
460 13.6372
465 17.7295
470 21.3922
475 27.3879
480 39.4531
485 65.5471
490 2676.25
495 9999.9
500 9999.9
505 7973.61
510 975.421
515 147.618
520 41.6903
525 24.5068
530 17.3367
535 12.3685
540 10.8136
545 9.53638
550 9.21822
555 8.72494
560 7.88522
565 7.04793
570 6.36309
575 5.58845
580 5.12631
585 4.57467
590 4.0109
595 3.70347
600 6.06966
Ex : 508
200 1.43277
205 1.4
210 1.69297
215 1.47208
220 1.39817
225 1.58911
230 1.62756
235 1.59731
240 1.54109
245 2.07541
250 3.2776
255 1.96746
260 1.66285
265 1.60908
270 1.68534
275 1.80384
280 1.7005
285 1.69497
290 1.81995
295 1.78045
300 1.86348
305 1.85458
310 1.97164
315 1.983
320 2.12862
325 2.16535
330 2.08722
335 2.23118
340 2.64863
345 2.64708
350 2.83335
355 2.80325
360 2.86943
365 2.942
370 2.88422
375 2.96783
380 3.53842
385 3.61773
390 3.75865
395 3.98425
400 4.36849
405 4.50943
410 4.84106
415 5.37114
420 5.60413
425 5.79774
430 5.98539
435 6.82009
440 6.74337
445 7.98118
450 9.16877
455 9.9542
460 11.9359
465 14.7398
470 17.5729
475 21.4771
480 28.1663
485 39.7639
490 66.1831
495 2882.91
500 9999.9
505 9999.9
510 8490.67
515 1034.08
520 154.108
525 42.2629
530 24.5986
535 17.8195
540 12.9009
545 10.7356
550 9.38949
555 9.01408
560 8.66337
565 7.83268
570 7.10544
575 6.03028
580 5.56853
585 4.7332
590 4.59164
595 4.12718
600 2.68895
Ex : 513
200 1.55634
205 1.57831
210 1.49245
215 1.41121
220 1.46242
225 1.55275
230 1.52249
235 1.45726
240 1.60308
245 1.59015
250 5.12123
255 3.98231
260 2.00429
265 1.74679
270 1.77632
275 1.65927
280 1.69309
285 1.85175
290 1.94402
295 1.87578
300 1.83121
305 1.8863
310 2.02547
315 1.95534
320 2.02104
325 2.09138
330 2.12408
335 2.2364
340 2.34555
345 2.48036
350 2.54069
355 2.67085
360 2.83206
365 2.83829
370 3.00052
375 2.89559
380 3.19421
385 3.56981
390 3.87192
395 4.02431
400 4.1335
405 4.31447
410 4.88222
415 4.92863
420 5.31321
425 5.92185
430 6.17943
435 6.1351
440 6.75552
445 7.49204
450 8.36999
455 9.13491
460 10.5963
465 12.7092
470 14.5319
475 17.1845
480 21.91
485 28.4536
490 41.2091
495 65.173
500 2657.12
505 9999.9
510 9999.9
515 8883.43
520 1079.56
525 159.748
530 42.7605
535 24.6462
540 18.2185
545 12.868
550 10.2542
555 9.25723
560 9.15816
565 8.69054
570 7.75539
575 6.98292
580 6.09119
585 5.4026
590 4.75916
595 4.05749
600 3.97933
Ex : 518
200 1.42071
205 1.49531
210 1.47479
215 1.40703
220 1.46749
225 1.50237
230 1.69444
235 1.57479
240 1.42788
245 1.38787
250 4.11185
255 10.1014
260 3.47307
265 1.9735
270 1.68155
275 1.80856
280 1.94841
285 1.67186
290 1.82497
295 1.90619
300 1.97675
305 1.82676
310 1.85581
315 1.94838
320 2.0969
325 2.10371
330 2.04474
335 2.15777
340 2.22348
345 2.35419
350 2.67382
355 2.62422
360 2.87102
365 3.1248
370 3.11688
375 3.30779
380 3.21835
385 3.43827
390 3.64132
395 3.66489
400 4.00775
405 4.28852
410 4.59285
415 4.90789
420 5.12646
425 5.47439
430 5.78489
435 6.33598
440 6.40818
445 6.96787
450 7.81964
455 8.74791
460 9.62074
465 11.3395
470 12.4728
475 13.5395
480 16.7576
485 21.2646
490 28.5096
495 39.5007
500 64.2358
505 2618.91
510 9999.9
515 9999.9
520 8905.79
525 1082.6
530 159.011
535 41.6809
540 24.0129
545 17.1213
550 12.4348
555 10.4925
560 9.40809
565 8.9177
570 8.36382
575 7.35885
580 6.57232
585 5.91431
590 5.29934
595 4.49907
600 4.26223
Ex : 523
200 1.54733
205 1.40397
210 1.49744
215 1.39385
220 1.45756
225 1.66043
230 1.66898
235 1.58894
240 1.65152
245 1.70902
250 1.90589
255 12.0927
260 9.47061
265 2.52234
270 1.8843
275 1.65831
280 1.84689
285 1.75997
290 1.82362
295 1.90058
300 1.91886
305 1.92348
310 1.83012
315 2.00175
320 2.01328
325 2.12114
330 2.08047
335 2.13643
340 2.33069
345 2.58236
350 2.69428
355 2.35384
360 2.74792
365 2.87304
370 2.90852
375 3.0585
380 3.32023
385 3.19877
390 3.51901
395 4.18165
400 4.19055
405 3.94165
410 4.13196
415 4.62642
420 5.13878
425 5.3349
430 5.6093
435 5.98146
440 6.40183
445 6.82088
450 7.10506
455 7.83111
460 9.03192
465 10.1199
470 11.2487
475 12.2573
480 13.9199
485 16.5351
490 21.6196
495 28.084
500 39.0267
505 63.4776
510 2419.38
515 9999.9
520 9999.9
525 9450.3
530 1144.21
535 166.765
540 43.388
545 24.243
550 17.4308
555 12.3824
560 10.6487
565 9.40088
570 9.00238
575 8.67383
580 7.41045
585 6.39552
590 5.78381
595 5.06303
600 5.29561
Ex : 528
200 1.59042
205 1.38218
210 1.4878
215 1.39303
220 1.55841
225 1.52778
230 1.4826
235 1.57898
240 1.59221
245 1.62959
250 1.55182
255 6.77719
260 18.7808
265 5.31022
270 2.17196
275 2.04938
280 1.56927
285 1.79658
290 1.82758
295 1.83698
300 2.16632
305 2.02712
310 1.94429
315 1.94151
320 2.19273
325 2.24196
330 2.33345
335 2.35533
340 2.30701
345 2.38639
350 2.43062
355 2.46621
360 2.69006
365 2.88925
370 3.11709
375 3.20337
380 3.27965
385 3.49188
390 3.20799
395 3.53599
400 3.81649
405 4.29073
410 4.51159
415 4.53462
420 4.7182
425 4.74915
430 5.27294
435 5.57598
440 5.94622
445 6.56482
450 7.31954
455 7.51184
460 8.19971
465 9.63207
470 10.3188
475 10.4691
480 11.739
485 13.7323
490 16.81
495 21.2985
500 27.5449
505 38.3519
510 59.5944
515 2229.86
520 9999.9
525 9999.9
530 9233.25
535 1121.08
540 164.345
545 42.6215
550 23.4336
555 17.3377
560 12.2765
565 10.1334
570 9.27172
575 8.79693
580 8.29129
585 7.24065
590 6.45873
595 5.61442
600 4.50952
Ex : 533
200 1.49449
205 1.47017
210 1.40401
215 1.51309
220 1.44549
225 1.3263
230 1.47631
235 1.6361
240 1.72021
245 1.46808
250 1.60684
255 2.35349
260 20.8188
265 16.0475
270 3.53302
275 2.13463
280 1.90376
285 1.92008
290 1.93609
295 1.91262
300 1.9168
305 1.91843
310 2.07236
315 2.10284
320 2.04797
325 1.99331
330 2.133
335 2.41645
340 2.31414
345 2.5176
350 2.53009
355 2.51461
360 2.62739
365 2.4828
370 2.93963
375 3.19107
380 2.86241
385 3.34565
390 3.3299
395 3.22434
400 3.78779
405 3.73101
410 4.10957
415 4.30773
420 4.34518
425 4.75138
430 5.21093
435 5.11124
440 5.41623
445 6.28984
450 6.54921
455 6.88774
460 7.49966
465 8.96859
470 9.36698
475 9.51362
480 10.9462
485 12.2239
490 14.0467
495 16.528
500 20.9172
505 27.184
510 37.995
515 60.3607
520 2237.48
525 9999.9
530 9999.9
535 9510.6
540 1152.28
545 166.751
550 42.9355
555 23.4398
560 16.7614
565 12.1218
570 9.66233
575 9.27098
580 8.28036
585 7.61226
590 6.89034
595 6.28656
600 5.88491
Ex : 538
200 1.37228
205 1.54798
210 1.51933
215 1.47077
220 1.51078
225 1.43943
230 1.63001
235 1.52732
240 1.56992
245 1.57632
250 1.47896
255 1.6167
260 10.9686
265 34.4278
270 9.64813
275 2.61193
280 1.87009
285 1.86092
290 2.19093
295 1.9424
300 1.92492
305 2.00388
310 2.00572
315 2.14538
320 2.2264
325 2.17112
330 2.0875
335 2.20151
340 2.31308
345 2.37831
350 2.38601
355 2.48928
360 2.49042
365 2.5912
370 2.57231
375 3.08218
380 3.04121
385 3.06321
390 3.43116
395 3.52165
400 3.64642
405 3.32984
410 3.89115
415 4.29178
420 4.34761
425 4.57198
430 4.58608
435 5.01973
440 5.21122
445 5.97571
450 6.35043
455 6.64331
460 7.53977
465 8.19618
470 8.5614
475 9.30041
480 9.90987
485 10.7559
490 12.3801
495 13.3867
500 15.8135
505 19.9591
510 27.067
515 37.3099
520 58.2899
525 1953.45
530 9999.9
535 9999.9
540 9851.37
545 1194.62
550 170.62
555 42.7609
560 22.978
565 16.4813
570 11.4806
575 9.00788
580 8.19208
585 7.60509
590 7.45938
595 6.60347
600 4.13599
Ex : 543
200 1.39402
205 1.3849
210 1.59363
215 1.52495
220 1.54419
225 1.51974
230 1.45504
235 1.46299
240 1.49341
245 1.66412
250 1.56246
255 1.52166
260 2.65997
265 37.8363
270 32.5069
275 5.73462
280 2.19115
285 1.75253
290 1.9091
295 1.81384
300 1.96959
305 2.08855
310 2.1513
315 2.05362
320 1.9085
325 2.38283
330 2.0791
335 2.00934
340 2.38361
345 2.29091
350 2.39743
355 2.3735
360 2.74058
365 2.38025
370 2.5052
375 2.71963
380 3.04246
385 3.159
390 3.29477
395 3.38503
400 3.60454
405 3.33316
410 3.41837
415 3.91999
420 4.58414
425 4.3141
430 4.49674
435 5.13716
440 5.17437
445 5.77144
450 6.07634
455 6.60498
460 7.20142
465 8.0694
470 7.7948
475 8.74782
480 8.96387
485 9.86144
490 10.7175
495 11.5509
500 12.9643
505 16.0232
510 19.6148
515 26.0003
520 35.7615
525 55.2188
530 1778.63
535 9999.9
540 9999.9
545 9999.9
550 1217.56
555 173.319
560 42.7122
565 22.1297
570 15.9451
575 10.9535
580 8.61105
585 7.75443
590 7.42114
595 7.37806
600 7.22704
Ex : 548
200 1.56081
205 1.61584
210 1.36254
215 1.61836
220 1.60914
225 1.54509
230 1.46724
235 1.48653
240 1.52756
245 1.47601
250 1.56789
255 1.66568
260 1.69901
265 19.4617
270 65.5051
275 17.1605
280 3.51672
285 2.02416
290 1.77026
295 2.02031
300 2.18767
305 2.14345
310 2.1401
315 2.02649
320 2.12159
325 2.04902
330 2.11798
335 2.59896
340 2.45511
345 2.52103
350 2.44172
355 2.65405
360 2.45728
365 2.60188
370 2.68546
375 2.76496
380 2.8525
385 3.16767
390 3.10871
395 3.32681
400 3.70158
405 3.7693
410 3.64909
415 3.64292
420 4.0334
425 4.27327
430 4.28627
435 4.87192
440 5.43826
445 5.5569
450 5.68266
455 6.50527
460 7.12101
465 7.53805
470 7.98545
475 8.2125
480 8.2751
485 9.16875
490 9.63329
495 10.373
500 11.13
505 13.2541
510 15.8443
515 19.5447
520 25.9368
525 35.922
530 56.2908
535 1949.62
540 9999.9
545 9999.9
550 9999.9
555 1212.14
560 171.734
565 41.4866
570 22.2177
575 15.2519
580 10.3492
585 8.33754
590 7.30959
595 7.01533
600 5.7906
Ex : 553
200 1.40257
205 1.48021
210 1.46468
215 1.34485
220 1.40093
225 1.44342
230 1.63318
235 1.62575
240 1.691
245 1.48413
250 1.44639
255 1.56968
260 1.48044
265 3.76462
270 70.1992
275 61.3325
280 9.54972
285 2.96825
290 2.19157
295 2.08672
300 2.16484
305 2.0034
310 2.18084
315 2.23085
320 2.23145
325 2.17006
330 2.40532
335 2.33958
340 2.47664
345 2.24145
350 2.43272
355 2.51308
360 2.43065
365 2.58391
370 2.80424
375 2.87448
380 2.82957
385 2.96766
390 2.90404
395 3.45555
400 3.11367
405 3.43797
410 3.62847
415 3.67681
420 3.71756
425 4.21554
430 4.462
435 4.3138
440 4.78328
445 5.26973
450 5.87395
455 6.00685
460 6.95439
465 7.11129
470 7.3822
475 7.31119
480 7.50194
485 8.30924
490 8.73876
495 9.2147
500 9.93226
505 11.0934
510 12.4363
515 15.2507
520 19.0131
525 25.2907
530 34.7658
535 54.513
540 1687.54
545 9999.9
550 9999.9
555 9999.9
560 1219.01
565 172.438
570 41.2804
575 21.0551
580 14.3623
585 9.84012
590 7.73759
595 7.37334
600 7.00724
Ex : 558
200 1.51713
205 1.51296
210 1.48314
215 1.59015
220 1.4495
225 1.51504
230 1.57179
235 1.68915
240 1.48152
245 1.3835
250 1.5554
255 1.5156
260 1.48673
265 1.68683
270 31.7132
275 123.753
280 31.6114
285 5.4451
290 2.28707
295 2.1822
300 1.98624
305 1.97389
310 2.10908
315 2.17331
320 2.13948
325 2.35114
330 2.2604
335 2.32833
340 2.31991
345 2.32102
350 2.3324
355 2.49688
360 2.64028
365 2.58043
370 2.61115
375 2.73458
380 2.72404
385 2.97984
390 2.93987
395 3.22451
400 3.14687
405 3.25422
410 3.73063
415 4.06922
420 3.83382
425 3.75277
430 4.05326
435 4.47174
440 4.84419
445 5.18094
450 5.58733
455 6.00475
460 6.58683
465 7.17541
470 7.5089
475 7.37576
480 7.4069
485 7.58347
490 8.42969
495 8.64007
500 9.26871
505 9.87402
510 11.1219
515 12.7884
520 15.2267
525 18.8638
530 25.2951
535 34.9924
540 53.5999
545 1605.71
550 9999.9
555 9999.9
560 9999.9
565 1219.66
570 170.349
575 39.8632
580 20.1175
585 13.8387
590 9.38188
595 7.55049
600 6.83054
Ex : 563
200 1.54581
205 1.49256
210 1.52465
215 1.55879
220 1.33528
225 1.53342
230 1.58253
235 1.66496
240 1.67431
245 1.71394
250 1.48314
255 1.42308
260 1.66407
265 1.67896
270 5.49659
275 116.57
280 98.62
285 14.1524
290 3.45737
295 2.15141
300 2.03225
305 2.07903
310 2.17309
315 2.09496
320 2.25334
325 2.16327
330 2.33172
335 2.34618
340 2.31739
345 2.3469
350 2.64212
355 2.3195
360 2.65281
365 2.62178
370 2.78209
375 2.85007
380 2.9236
385 2.89328
390 2.91754
395 2.77934
400 3.11658
405 3.58538
410 3.68374
415 3.52221
420 3.70335
425 3.61782
430 3.76898
435 4.17553
440 4.60856
445 4.73146
450 5.20984
455 5.49158
460 6.0194
465 6.74293
470 6.82023
475 6.57574
480 7.34749
485 7.06811
490 7.72061
495 8.12995
500 8.56084
505 9.20293
510 10.0101
515 10.9664
520 12.214
525 15.09
530 18.8484
535 24.8915
540 34.1415
545 52.3267
550 1573.19
555 9999.9
560 9999.9
565 9999.9
570 1214.83
575 167.605
580 36.7895
585 18.5628
590 12.431
595 8.54871
600 7.60313
Ex : 568
200 1.61201
205 1.60746
210 1.46265
215 1.6518
220 1.57292
225 1.41423
230 1.61558
235 1.58614
240 1.39318
245 1.60907
250 1.51777
255 1.5275
260 1.62552
265 1.64242
270 1.78488
275 43.6691
280 184.37
285 48.8112
290 7.30507
295 2.65167
300 2.27145
305 2.09029
310 2.25457
315 2.15365
320 2.15168
325 2.31222
330 2.24657
335 2.27263
340 2.35791
345 2.63527
350 2.41555
355 2.63782
360 2.49286
365 2.55097
370 2.56564
375 2.59903
380 2.66538
385 2.90864
390 2.74305
395 2.73952
400 2.92017
405 3.08384
410 3.12817
415 3.43405
420 3.56493
425 3.31716
430 3.71641
435 4.01234
440 4.4437
445 5.25103
450 4.98811
455 5.2032
460 5.77407
465 6.42553
470 6.6032
475 6.61029
480 6.68576
485 6.88897
490 7.26086
495 7.23767
500 7.89751
505 8.10821
510 8.94854
515 9.47885
520 10.2469
525 12.0038
530 14.6068
535 17.7112
540 23.6109
545 32.8968
550 50.2796
555 1190.83
560 9999.9
565 9999.9
570 9999.9
575 1225.7
580 166.217
585 35.9623
590 17.4843
595 11.7306
600 7.75012
Ex : 573
200 1.39948
205 1.42049
210 1.55617
215 1.40573
220 1.53356
225 1.49191
230 1.58233
235 1.58953
240 1.46598
245 1.45356
250 1.49767
255 1.66777
260 1.69917
265 1.68883
270 1.75774
275 5.76316
280 155.683
285 147.133
290 20.4066
295 4.35267
300 2.30663
305 2.02262
310 2.14205
315 2.48505
320 2.17786
325 2.01044
330 2.05645
335 2.28176
340 2.18243
345 2.51387
350 2.35383
355 2.47481
360 2.35329
365 2.50688
370 2.62409
375 2.56129
380 2.64929
385 2.69485
390 3.03034
395 2.81219
400 2.97738
405 2.96785
410 2.94075
415 2.71287
420 3.2338
425 3.20804
430 3.50689
435 3.64724
440 3.736
445 4.40253
450 4.77754
455 4.89553
460 5.44294
465 5.99317
470 6.03608
475 6.29405
480 6.18479
485 6.37775
490 7.17932
495 6.57337
500 7.14749
505 7.68848
510 7.85556
515 8.58659
520 9.23688
525 9.96506
530 11.9102
535 14.0903
540 17.5728
545 23.5234
550 31.939
555 48.6161
560 1045.16
565 9999.9
570 9999.9
575 9999.9
580 1220.32
585 162.588
590 34.1247
595 16.1399
600 9.2543
Ex : 578
200 1.39878
205 1.46582
210 1.5309
215 1.48559
220 1.45355
225 1.30244
230 1.4061
235 1.36912
240 1.48903
245 1.56037
250 1.30835
255 1.4895
260 1.65828
265 1.40554
270 1.6186
275 1.94702
280 58.0411
285 241.085
290 66.6328
295 9.56637
300 2.87474
305 2.04793
310 2.09583
315 2.344
320 2.14573
325 2.11686
330 2.10634
335 2.21758
340 2.17241
345 2.28753
350 2.0861
355 2.2071
360 2.16214
365 2.4165
370 2.34754
375 2.60421
380 2.47402
385 2.56531
390 2.67514
395 2.59125
400 2.93549
405 2.9541
410 3.0572
415 2.86203
420 2.92999
425 3.23504
430 3.39801
435 3.60964
440 3.55892
445 3.69946
450 4.54009
455 4.80106
460 5.194
465 5.78833
470 5.89574
475 5.56727
480 5.98065
485 5.94163
490 6.79191
495 6.07611
500 6.48601
505 6.72691
510 7.49137
515 7.77138
520 8.40213
525 8.66761
530 9.43159
535 10.9102
540 13.8498
545 17.1216
550 22.6824
555 30.026
560 45.091
565 908.837
570 9999.9
575 9999.9
580 9248.55
585 1117.68
590 148.746
595 30.7318
600 14.8583
Ex : 583
200 1.36877
205 1.4638
210 1.37799
215 1.33253
220 1.4785
225 1.38797
230 1.44756
235 1.50938
240 1.28181
245 1.14968
250 1.65369
255 1.32866
260 1.28397
265 1.3289
270 1.3506
275 1.66652
280 7.22383
285 187.047
290 180.912
295 25.1031
300 4.58375
305 2.38129
310 1.92753
315 1.9467
320 2.05213
325 2.0369
330 1.96616
335 2.09621
340 2.01287
345 2.10239
350 2.24885
355 2.2126
360 2.42723
365 2.27198
370 2.25586
375 2.36722
380 2.37952
385 2.47521
390 2.5883
395 2.76121
400 2.71238
405 2.59022
410 2.84169
415 2.62564
420 3.03972
425 2.91369
430 2.95483
435 3.09945
440 3.28289
445 3.40024
450 3.56968
455 4.18953
460 4.77955
465 5.42045
470 5.11241
475 5.14569
480 5.72669
485 5.75362
490 6.0385
495 5.93784
500 6.391
505 6.18549
510 6.48062
515 6.75855
520 6.85525
525 7.54175
530 8.42339
535 8.95498
540 10.5014
545 12.4481
550 16.4756
555 20.9811
560 28.3947
565 41.8324
570 793.334
575 9999.9
580 9999.9
585 7660.87
590 929.865
595 124.262
600 27.4764
Ex : 588
200 1.14117
205 1.30006
210 1.16461
215 1.32264
220 1.20284
225 1.19375
230 1.2562
235 1.23249
240 1.08754
245 1.20736
250 1.02773
255 1.03927
260 1.51405
265 1.36762
270 1.29186
275 1.49049
280 1.84489
285 63.6646
290 291.176
295 84.0615
300 11.3981
305 3.14792
310 1.90946
315 1.76944
320 2.13806
325 2.02739
330 1.75737
335 1.88681
340 1.82087
345 1.96004
350 2.30828
355 2.09084
360 2.10875
365 2.06864
370 2.20773
375 2.13282
380 2.14217
385 2.18677
390 2.52205
395 2.5376
400 2.40421
405 2.57235
410 2.32648
415 2.61293
420 2.63442
425 2.98645
430 2.76898
435 2.85264
440 3.34066
445 3.56524
450 3.40221
455 3.57517
460 4.55385
465 5.21121
470 5.64989
475 4.98561
480 5.38005
485 4.80171
490 5.52649
495 5.39061
500 5.85946
505 5.6115
510 5.84058
515 6.01401
520 6.67692
525 6.87565
530 7.8221
535 8.24635
540 8.78214
545 10.0966
550 12.3902
555 15.8531
560 20.1089
565 26.6363
570 38.0423
575 719.15
580 9999.9
585 9999.9
590 7138.74
595 863.587
600 121.7
Ex : 593
200 1.0963
205 1.22952
210 1.28107
215 1.19998
220 1.13995
225 1.10571
230 1.16347
235 1.35827
240 1.17093
245 1.11333
250 1.09449
255 1.12485
260 1.13589
265 1.08098
270 1.03675
275 1.28442
280 1.48971
285 6.74449
290 218.344
295 223.76
300 31.5381
305 5.12584
310 2.30546
315 1.7725
320 1.87968
325 2.02158
330 1.82763
335 1.71374
340 1.95078
345 2.08081
350 2.09312
355 1.87999
360 2.08751
365 2.11624
370 2.08193
375 1.95214
380 2.01702
385 2.23555
390 2.27548
395 2.38215
400 2.3634
405 2.44889
410 2.26621
415 2.7107
420 2.70474
425 2.70398
430 2.82298
435 2.99168
440 2.86943
445 3.33244
450 3.65408
455 3.4931
460 3.79933
465 4.59354
470 4.96464
475 4.87613
480 4.93317
485 4.86554
490 5.09023
495 5.17227
500 5.26263
505 5.5367
510 5.67493
515 5.66473
520 5.8265
525 6.24616
530 6.88025
535 6.63161
540 7.71695
545 8.55849
550 9.65376
555 11.9606
560 15.0082
565 19.3991
570 24.7182
575 34.1223
580 627.389
585 9999.9
590 9999.9
595 6418.81
600 978.903
Ex : 598
200 1.2139
205 1.01344
210 1.07524
215 1.13485
220 1.11983
225 1.10166
230 0.975349
235 1.05759
240 1.0409
245 1.14666
250 1.12494
255 1.05413
260 1.14705
265 1.42205
270 1.36458
275 1.3142
280 1.42051
285 1.60351
290 73.23
295 341.378
300 102.57
305 13.563
310 3.124
315 2.15042
320 1.73208
325 1.96602
330 1.88747
335 1.66182
340 1.82293
345 1.85687
350 1.79875
355 1.83981
360 1.90965
365 2.01943
370 2.06608
375 2.1472
380 2.1069
385 2.31986
390 2.53419
395 2.27593
400 2.36032
405 2.56713
410 2.53906
415 2.70143
420 2.73423
425 2.57344
430 2.89583
435 2.99097
440 3.10456
445 3.07233
450 3.14073
455 3.56222
460 3.79245
465 4.10583
470 4.35302
475 4.55643
480 4.97588
485 4.86323
490 5.01197
495 5.07438
500 4.95141
505 5.0379
510 5.05685
515 5.49879
520 5.42065
525 5.64951
530 5.65899
535 6.11968
540 7.23679
545 7.98058
550 8.03054
555 9.58218
560 11.7655
565 13.6163
570 16.8234
575 22.1096
580 29.9485
585 590.163
590 9999.9
595 9999.9
600 9999.9
Ex : 603
200 0.978609
205 1.10773
210 1.16504
215 1.163
220 0.891574
225 0.883659
230 1.03134
235 1.02172
240 1.0653
245 0.980386
250 1.13494
255 1.03192
260 1.18391
265 1.06231
270 1.05532
275 1.26057
280 1.42905
285 1.68508
290 7.16905
295 255.323
300 274.38
305 38.494
310 6.25053
315 2.31666
320 1.88342
325 1.82322
330 2.02186
335 2.01694
340 1.73394
345 1.94629
350 1.77631
355 1.94097
360 1.80347
365 2.15048
370 2.21736
375 2.11852
380 2.0938
385 2.46667
390 2.13904
395 2.42462
400 2.46351
405 2.38398
410 2.47155
415 2.31961
420 2.61607
425 2.68122
430 2.85067
435 2.6182
440 2.7745
445 2.70505
450 2.93015
455 3.20607
460 3.51668
465 4.19122
470 3.70505
475 4.53299
480 4.53241
485 4.71645
490 4.67853
495 4.58545
500 4.55123
505 4.92033
510 5.05335
515 5.26433
520 5.28545
525 4.9074
530 5.55229
535 5.89323
540 6.35499
545 6.49453
550 6.80118
555 7.90278
560 9.01768
565 10.8103
570 13.3571
575 15.5904
580 19.3473
585 27.7082
590 545.246
595 9999.9
600 9999.9
