File format V 1.0
mar. 14. juin 09:35:44 2016
Operator : 
Comments : 

=============================================
SpectroFluorometer parameters
Mode : 3D measurement
Data : Fluorescence
Phospho. : Ordinary
Spectrum : Fluorescence

Scan speed : 2400 nm/mn
Response : 100 ms
PM Voltage : 700 V
Shutter : On

Lambda Ex. Start : 203
Lambda Ex. End : 603
Lambda Ex. Step : 5
Ex. Slit : 5 nm

Lambda Em. Start : 200
Lambda Em. End : 600
Lambda Em. Step : 5
Em. Slit : 5 nm

Repetition : 1
Decal lambda em : 10
=============================================
DATA
Ex : 203
200 11.6613
205 16.4279
210 10.7139
215 14.6032
220 14.7069
225 10.8803
230 12.8713
235 12.8062
240 13.9365
245 14.7618
250 13.323
255 13.7991
260 15.2524
265 10.5337
270 16.0038
275 13.8183
280 13.4884
285 16.6528
290 17.9518
295 15.131
300 22.8072
305 17.2571
310 20.2064
315 23.2167
320 23.7493
325 24.9817
330 25.4124
335 21.2646
340 26.7318
345 28.9703
350 31.3505
355 26.6618
360 32.6005
365 30.2507
370 30.4198
375 40.8149
380 38.4391
385 32.0256
390 40.7106
395 40.7957
400 38.7214
405 32.2139
410 37.517
415 45.7053
420 50.775
425 38.3617
430 39.5394
435 40.6583
440 37.2725
445 45.4405
450 46.9752
455 38.359
460 50.6179
465 45.1722
470 43.0387
475 40.535
480 45.847
485 45.7683
490 41.5962
495 40.0848
500 38.2846
505 33.8034
510 38.9572
515 30.7044
520 34.8853
525 36.218
530 38.7303
535 34.8056
540 32.6755
545 34.5256
550 36.823
555 32.7384
560 31.0812
565 34.8696
570 38.1715
575 39.0947
580 32.6534
585 28.2954
590 22.5904
595 19.7584
600 9.33806
Ex : 208
200 15.5813
205 12.4877
210 11.9592
215 12.2157
220 15.0689
225 13.5385
230 10.4338
235 10.4347
240 16.9332
245 13.122
250 12.9809
255 12.7142
260 15.8678
265 12.6704
270 19.3793
275 14.5037
280 16.2051
285 15.0823
290 13.464
295 19.1562
300 19.1397
305 21.7031
310 19.2513
315 25.2815
320 23.8307
325 21.0077
330 20.707
335 20.9443
340 29.8307
345 24.645
350 31.4922
355 30.6268
360 33.0898
365 31.0596
370 30.5974
375 33.1928
380 36.2771
385 38.1144
390 37.3157
395 43.591
400 36.632
405 45.3747
410 41.9101
415 37.8163
420 45.5877
425 46.2928
430 36.899
435 33.0703
440 43.92
445 45.6238
450 44.2649
455 44.2482
460 50.6075
465 47.0927
470 51.5213
475 41.1951
480 41.9823
485 39.3348
490 38.4441
495 39.1206
500 41.8467
505 29.5141
510 34.8044
515 39.8747
520 37.5838
525 35.7302
530 33.8889
535 37.3638
540 35.8448
545 35.8199
550 30.1012
555 33.4817
560 39.2679
565 38.2121
570 28.9313
575 29.2694
580 32.7084
585 36.194
590 28.3482
595 24.4853
600 40.5977
Ex : 213
200 14.5288
205 12.61
210 10.0732
215 14.987
220 14.2066
225 12.447
230 11.1194
235 10.6922
240 11.7608
245 16.3749
250 11.8071
255 15.5229
260 16.5049
265 14.9577
270 16.0363
275 15.8803
280 15.5319
285 17.558
290 23.5844
295 16.2138
300 18.2078
305 17.7583
310 19.1818
315 22.0876
320 19.0327
325 22.7465
330 24.3102
335 25.2732
340 28.1561
345 29.5969
350 31.2811
355 26.1117
360 30.7228
365 29.9531
370 35.656
375 32.1647
380 34.6965
385 33.6575
390 37.4232
395 37.5405
400 44.2625
405 46.2899
410 44.7978
415 48.632
420 44.1227
425 42.5017
430 37.8114
435 46.119
440 46.3372
445 47.1633
450 48.7999
455 40.7438
460 49.7911
465 46.9228
470 43.8281
475 40.0545
480 48.8682
485 41.6566
490 40.4278
495 33.6606
500 38.0183
505 35.4409
510 39.4559
515 34.9103
520 35.3327
525 39.3314
530 35.8084
535 33.4406
540 34.6472
545 34.2482
550 40.2415
555 41.3842
560 36.3049
565 36.5543
570 38.8999
575 33.6533
580 31.6564
585 30.239
590 27.6409
595 28.3145
600 19.8827
Ex : 218
200 15.1836
205 13.1813
210 10.7297
215 13.8168
220 12.5928
225 13.555
230 15.5648
235 11.2391
240 7.97322
245 12.5989
250 13.5847
255 12.6981
260 17.5852
265 17.2197
270 16.8106
275 17.6193
280 18.349
285 13.1922
290 18.7398
295 20.0219
300 16.7812
305 17.1288
310 20.356
315 21.9524
320 26.4536
325 24.9066
330 22.2924
335 24.224
340 22.1252
345 28.3307
350 24.7882
355 27.6531
360 25.9801
365 31.4246
370 32.1441
375 35.603
380 41.9993
385 34.0153
390 37.6745
395 36.7116
400 44.3667
405 46.621
410 41.8813
415 43.3704
420 38.9295
425 44.5446
430 45.935
435 39.0038
440 39.9926
445 42.5734
450 43.3222
455 45.7807
460 46.0285
465 56.4796
470 59.3349
475 52.966
480 49.9061
485 46.3539
490 41.8331
495 43.6653
500 42.1089
505 29.6903
510 35.8101
515 34.242
520 46.011
525 33.8237
530 40.994
535 37.5391
540 37.1085
545 34.8081
550 37.7224
555 39.4925
560 37.0715
565 31.4641
570 37.7688
575 33.7143
580 32.7228
585 30.2539
590 31.4957
595 25.1976
600 7.65289
Ex : 223
200 12.4428
205 11.6095
210 12.1127
215 11.3612
220 13.5397
225 9.97313
230 13.031
235 12.2568
240 17.2254
245 13.8407
250 15.074
255 12.4745
260 11.0438
265 15.6388
270 15.7588
275 16.0907
280 16.335
285 15.9279
290 19.3343
295 13.2221
300 20.2987
305 16.8536
310 19.2466
315 24.8086
320 21.6125
325 25.1901
330 26.8915
335 24.3869
340 29.0705
345 25.0803
350 32.5826
355 28.1962
360 32.7503
365 30.5016
370 28.3138
375 32.2841
380 42.1552
385 38.9095
390 36.7931
395 41.039
400 37.3569
405 39.38
410 40.4305
415 41.0593
420 39.9095
425 41.0271
430 37.4237
435 35.5417
440 39.9692
445 44.9701
450 48.9313
455 51.3538
460 51.5702
465 50.8675
470 45.2048
475 38.0758
480 50.7467
485 44.7378
490 44.1236
495 35.0926
500 36.228
505 41.3299
510 34.9715
515 35.3882
520 34.166
525 39.0349
530 37.4763
535 40.2995
540 40.2835
545 36.4485
550 32.2837
555 34.2809
560 36.7204
565 36.5187
570 34.7764
575 32.3699
580 33.3505
585 29.2616
590 29.6596
595 24.1408
600 35.9798
Ex : 228
200 16.1361
205 11.4142
210 12.5574
215 10.4875
220 14.5108
225 15.0686
230 15.3003
235 13.5084
240 10.2269
245 9.95408
250 12.0422
255 12.0969
260 15.9885
265 14.0026
270 13.7777
275 17.4181
280 20.0931
285 12.8967
290 17.3798
295 16.248
300 19.439
305 20.2846
310 18.6967
315 25.5108
320 24.9195
325 31.304
330 24.2568
335 27.2287
340 23.4897
345 29.8969
350 28.9523
355 30.9721
360 31.9356
365 35.1947
370 33.4874
375 32.6318
380 34.8019
385 39.336
390 38
395 39.3618
400 39.0573
405 35.8146
410 35.9067
415 40.1567
420 43.3421
425 44.1089
430 38.2009
435 36.6339
440 36.3633
445 39.23
450 55.2404
455 65.1518
460 77.5952
465 58.8366
470 49.973
475 43.8748
480 43.4994
485 41.6892
490 44.5972
495 40.0478
500 34.8743
505 34.038
510 35.1845
515 35.7546
520 37.9831
525 37.6731
530 42.1983
535 37.1325
540 38.2642
545 41.5491
550 36.0796
555 37.9873
560 37.343
565 33.384
570 34.6397
575 36.1262
580 36.1101
585 31.4266
590 29.9826
595 26.3
600 48.012
Ex : 233
200 12.5084
205 9.96866
210 11.1981
215 10.0059
220 14.2897
225 18.1946
230 22.7902
235 13.5282
240 10.1438
245 9.1858
250 12.0776
255 10.6757
260 11.516
265 10.4023
270 15.0259
275 16.4084
280 16.2031
285 16.6722
290 19.0238
295 20.1909
300 18.9606
305 17.9838
310 17.1449
315 21.4551
320 21.5198
325 24.7133
330 26.9732
335 26.4494
340 28.8186
345 30.6971
350 37.7125
355 34.5981
360 29.6493
365 32.9003
370 36.4776
375 38.7282
380 38.2968
385 33.5954
390 42.2593
395 35.0332
400 39.7984
405 33.9372
410 42.2756
415 36.3026
420 33.7086
425 37.5039
430 38.2614
435 38.5029
440 39.5804
445 44.2435
450 40.9037
455 64.3902
460 158.004
465 231.148
470 147.406
475 63.0559
480 46.3118
485 42.0259
490 41.229
495 39.996
500 35.8441
505 34.7362
510 38.2447
515 35.9537
520 38.7602
525 36.1189
530 38.4543
535 40.2061
540 37.579
545 34.0759
550 38.6488
555 38.0859
560 32.2168
565 32.4715
570 33.6308
575 31.2994
580 31.1082
585 32.103
590 33.1083
595 30.8683
600 20.4772
Ex : 238
200 6.9205
205 8.77977
210 12.5901
215 11.4657
220 7.7599
225 11.6605
230 32.4173
235 55.3672
240 22.2088
245 11.2272
250 9.63124
255 12.0406
260 8.92365
265 11.4849
270 15.5161
275 16.4794
280 13.6433
285 13.6673
290 12.6716
295 15.0462
300 16.0865
305 13.1076
310 20.7501
315 16.9189
320 22.5339
325 24.842
330 25.117
335 30.1873
340 29.7875
345 29.9138
350 27.7139
355 24.5697
360 31.8508
365 30.3808
370 32.4456
375 32.1118
380 33.6524
385 29.8799
390 35.4535
395 39.1686
400 32.0006
405 32.2399
410 37.7019
415 40.4121
420 35.1728
425 36.6116
430 37.8281
435 37.9327
440 37.6914
445 35.6319
450 37.8766
455 39.37
460 50.7267
465 144.299
470 349.021
475 421.812
480 243.933
485 75.3194
490 40.0022
495 35.2424
500 31.1896
505 31.4801
510 34.3985
515 37.2913
520 39.6552
525 39.7948
530 35.0974
535 30.673
540 38.3317
545 37.3302
550 38.7001
555 38.3555
560 31.058
565 40.6257
570 37.7657
575 33.5388
580 27.09
585 27.3091
590 27.0977
595 25.7533
600 27.4489
Ex : 243
200 10.2754
205 10.1533
210 8.43871
215 6.78879
220 8.21119
225 8.24944
230 10.9281
235 47.797
240 69.4777
245 22.7435
250 11.037
255 12.3086
260 12.3096
265 12.7957
270 13.9099
275 12.5902
280 16.1555
285 12.6385
290 15.5655
295 13.2598
300 16.2879
305 18.5857
310 20.4416
315 16.6742
320 21.3271
325 20.5084
330 23.8257
335 24.3677
340 23.6167
345 27.2927
350 22.3129
355 24.8264
360 29.7825
365 27.2478
370 29.3681
375 25.0229
380 32.4778
385 34.4286
390 31.6935
395 34.092
400 35.0046
405 36.2018
410 28.8817
415 30.5633
420 29.3861
425 33.99
430 29.4549
435 32.3434
440 27.8751
445 31.2457
450 34.8147
455 36.4264
460 33.2733
465 36.9283
470 58.3255
475 207.4
480 442.408
485 466.431
490 245.867
495 67.6371
500 31.1689
505 30.8147
510 33.104
515 38.683
520 34.7107
525 39.087
530 44.0839
535 39.1439
540 33.2923
545 37.9566
550 30.1487
555 32.19
560 32.605
565 32.5587
570 30.39
575 29.1346
580 28.5924
585 30.8289
590 24.0622
595 24.7935
600 14.1944
Ex : 248
200 6.78431
205 5.56003
210 6.20738
215 8.2467
220 6.96264
225 7.48024
230 6.81653
235 12.4266
240 56.4704
245 80.3049
250 23.1729
255 13.5328
260 11.0493
265 14.8631
270 12.5256
275 12.9182
280 12.1273
285 10.9111
290 10.4527
295 12.7458
300 12.6186
305 14.81
310 16.1756
315 17.7185
320 19.867
325 18.9683
330 21.5387
335 17.7571
340 17.7123
345 21.2642
350 23.48
355 21.2247
360 24.9191
365 24.4665
370 25.1577
375 28.0959
380 23.7959
385 23.5191
390 30.6014
395 32.176
400 32.1364
405 29.2013
410 29.8605
415 26.8898
420 25.499
425 24.9967
430 25.5709
435 26.2521
440 29.4761
445 27.9291
450 29.2755
455 29.0413
460 32.0092
465 35.3567
470 30.8354
475 29.6667
480 56.5915
485 256.102
490 463.448
495 460.909
500 207.954
505 54.7334
510 30.5746
515 31.5249
520 34.4027
525 38.4425
530 39.0932
535 45.1433
540 38.5487
545 37.3046
550 31.5838
555 31.5858
560 30.5164
565 33.9958
570 29.2203
575 26.4543
580 25.2085
585 26.3344
590 23.2948
595 21.2587
600 5.29932
Ex : 253
200 5.01786
205 7.18182
210 4.58413
215 4.90857
220 6.7108
225 6.25655
230 5.03873
235 5.98411
240 8.24139
245 55.8469
250 107.593
255 42.19
260 13.7681
265 12.7688
270 13.6846
275 12.9112
280 11.3449
285 12.3585
290 11.5653
295 9.13588
300 14.8756
305 13.5312
310 13.6985
315 14.4128
320 17.8342
325 15.283
330 17.2149
335 17.1683
340 18.2788
345 18.8205
350 20.3995
355 18.9726
360 19.661
365 21.9435
370 20.7115
375 24.5278
380 21.5488
385 23.1303
390 23.3847
395 26.793
400 24.7119
405 21.9429
410 22.3039
415 24.1345
420 22.9571
425 23.54
430 21.8812
435 19.896
440 23.2282
445 22.2618
450 25.4296
455 22.4062
460 27.3456
465 28.2248
470 26.4488
475 24.675
480 23.5143
485 22.6429
490 60.2052
495 234.107
500 409.872
505 475.915
510 380.697
515 105.737
520 46.6468
525 35.6425
530 39.5672
535 38.061
540 37.2203
545 39.2136
550 36.1296
555 33.1158
560 29.227
565 27.1842
570 25.9352
575 27.8962
580 20.8057
585 23.361
590 21.1611
595 17.9697
600 7.86851
Ex : 258
200 4.21579
205 3.71886
210 4.34373
215 4.8332
220 4.69706
225 5.42995
230 4.00286
235 4.9254
240 5.68333
245 10.3107
250 198.626
255 493.624
260 185.11
265 32.4616
270 12.929
275 12.7365
280 14.4272
285 14.542
290 11.5748
295 12.1308
300 14.308
305 14.6285
310 14.3062
315 16.3006
320 17.0316
325 17.8258
330 18.4932
335 19.4642
340 18.7724
345 18.779
350 22.2047
355 18.6775
360 19.6896
365 20.7531
370 19.7101
375 18.3841
380 20.4888
385 21.2357
390 20.2825
395 21.172
400 19.7445
405 21.9404
410 22.9077
415 21.5539
420 21.0244
425 20.6086
430 19.7713
435 19.3362
440 20.1653
445 18.8403
450 22.1079
455 20.8271
460 21.2518
465 23.4626
470 21.8474
475 22.4539
480 21.336
485 19.1199
490 20.003
495 21.9228
500 58.1029
505 412.38
510 2147.04
515 3270.46
520 2013.31
525 387.704
530 86.109
535 46.0693
540 40.5453
545 36.9372
550 36.2528
555 37.04
560 39.8188
565 35.8179
570 30.9345
575 24.3008
580 24.3683
585 23.6105
590 20.7037
595 18.2236
600 22.102
Ex : 263
200 3.64597
205 3.65719
210 4.33476
215 3.66596
220 4.44709
225 4.36764
230 4.2068
235 3.9753
240 6.27859
245 5.66533
250 34.6092
255 775.689
260 1699.32
265 472.317
270 68.7172
275 20.4896
280 16.173
285 16.1626
290 14.3424
295 11.69
300 14.8168
305 16.6833
310 16.117
315 15.7257
320 17.5564
325 17.2633
330 17.1137
335 18.275
340 19.3154
345 19.2729
350 17.7779
355 20.0245
360 19.0393
365 17.3398
370 19.6067
375 18.3014
380 17.8547
385 16.5277
390 17.6175
395 17.8568
400 17.7688
405 18.4927
410 19.5902
415 19.1494
420 18.3703
425 19.1505
430 19.055
435 18.907
440 18.0748
445 17.704
450 17.6386
455 17.9199
460 21.7918
465 21.8428
470 19.9676
475 19.4095
480 19.1156
485 20.0893
490 17.3527
495 19.6442
500 21.0258
505 25.7908
510 261.147
515 2333.56
520 8039.61
525 9648.83
530 4380.87
535 746.81
540 136.819
545 60.0903
550 43.5056
555 38.1746
560 39.1846
565 38.1778
570 40.5037
575 38.6289
580 33.4834
585 25.3512
590 23.4665
595 22.3274
600 32.0317
Ex : 268
200 4.45455
205 4.27747
210 4.3169
215 5.54582
220 3.69438
225 3.4756
230 4.1035
235 4.15917
240 5.23688
245 4.70504
250 5.51646
255 80.8855
260 1520.61
265 2608.96
270 758.343
275 104.316
280 24.9726
285 18.5796
290 17.6177
295 17.8259
300 16.0365
305 16.2814
310 17.7072
315 16.3165
320 18.4961
325 19.6104
330 18.1795
335 16.4221
340 16.6916
345 19.5431
350 18.2291
355 17.3925
360 17.0512
365 16.5291
370 15.3034
375 14.6308
380 15.8042
385 15.7494
390 14.2593
395 15.5785
400 13.9794
405 15.5973
410 14.9373
415 16.5758
420 17.2834
425 15.8046
430 15.2995
435 14.2982
440 16.2766
445 15.909
450 15.518
455 17.032
460 15.3525
465 16.5589
470 16.377
475 19.0228
480 18.1433
485 19.6862
490 18.0985
495 18.5452
500 19.2126
505 20.0202
510 22.7545
515 35.8704
520 624.036
525 5030.44
530 9999.9
535 9999.9
540 5304.13
545 892.21
550 155.894
555 61.62
560 46.0198
565 37.1942
570 35.6951
575 38.2547
580 39.4339
585 36.1578
590 33.7629
595 27.2804
600 28.2404
Ex : 273
200 4.00503
205 3.59007
210 3.87629
215 3.22568
220 3.0735
225 3.5614
230 3.32652
235 4.6516
240 4.38532
245 5.41528
250 5.30508
255 6.76293
260 120.477
265 2198.57
270 3693.59
275 910.278
280 122.486
285 28.2578
290 18.9875
295 20.6066
300 19.4875
305 16.4334
310 16.8701
315 17.4217
320 16.7248
325 18.0284
330 17.5402
335 17.6552
340 18.1957
345 17.0159
350 17.978
355 17.4545
360 16.0405
365 15.6479
370 15.2278
375 15.4551
380 14.4742
385 14.9917
390 14.4095
395 13.9747
400 14.1987
405 12.9559
410 14.5369
415 13.3039
420 13.359
425 12.5529
430 12.1192
435 14.4639
440 12.4262
445 13.7564
450 13.472
455 13.1589
460 13.9176
465 15.9982
470 15.3038
475 15.1504
480 14.4432
485 14.5026
490 16.1262
495 14.9635
500 15.8806
505 16.8526
510 18.6574
515 22.0016
520 27.6121
525 50.2352
530 1008.86
535 7019.34
540 9999.9
545 9999.9
550 5423.73
555 890.815
560 156.155
565 57.9601
570 42.7005
575 36.2871
580 32.1566
585 35.0941
590 36.1861
595 36.7691
600 46.2646
Ex : 278
200 2.73571
205 3.16578
210 2.73711
215 3.02116
220 3.55447
225 2.92983
230 3.0066
235 3.45852
240 4.11102
245 3.76914
250 4.82718
255 5.57275
260 8.66093
265 147.199
270 2552.56
275 4292.36
280 1055.91
285 141.298
290 32.0357
295 19.9712
300 21.2046
305 22.3574
310 16.908
315 16.4007
320 17.6147
325 19.4041
330 17.8896
335 17.4915
340 17.2593
345 16.7305
350 17.4009
355 15.9027
360 14.6548
365 14.7228
370 13.2749
375 12.6223
380 13.59
385 13.3599
390 12.4099
395 13.6773
400 11.5268
405 12.2868
410 10.2458
415 11.5106
420 11.4948
425 11.6879
430 11.3743
435 12.0509
440 12.1119
445 11.5675
450 12.1038
455 13.2763
460 13.7699
465 14.1215
470 12.8672
475 12.1608
480 12.863
485 13.0921
490 13.5319
495 12.7754
500 13.7396
505 13.4057
510 14.0534
515 15.1921
520 18.6387
525 20.7871
530 27.0374
535 54.3598
540 1152.27
545 7408.59
550 9999.9
555 9999.9
560 5257.37
565 871.306
570 148.386
575 56.0429
580 38.2199
585 31.6855
590 28.5368
595 31.1402
600 32.6541
Ex : 283
200 3.16611
205 2.85249
210 2.42738
215 2.66104
220 2.98093
225 2.75365
230 2.95689
235 2.83351
240 3.20111
245 3.16219
250 3.38298
255 4.18888
260 5.5853
265 8.5264
270 166.058
275 3024.1
280 4883.65
285 1216.74
290 158.392
295 34.0254
300 20.2878
305 21.3908
310 20.2545
315 18.1155
320 17.3745
325 15.8442
330 15.652
335 16.0244
340 15.569
345 16.8228
350 15.4094
355 14.7773
360 13.1051
365 12.8357
370 12.3761
375 11.4789
380 11.1927
385 11.3112
390 11.9306
395 10.9699
400 10.5147
405 11.1194
410 12.1233
415 11.3395
420 11.7829
425 10.6585
430 10.746
435 11.0164
440 10.4452
445 10.7969
450 10.7389
455 11.4545
460 12.3061
465 11.3418
470 11.457
475 10.9241
480 11.2419
485 10.8652
490 11.1434
495 10.5277
500 11.3948
505 12.2769
510 11.9209
515 12.3612
520 12.6822
525 15.4853
530 18.236
535 22.0235
540 31.8484
545 57.4424
550 1285.48
555 7772.75
560 9999.9
565 9999.9
570 5136.27
575 828.393
580 137.692
585 50.2902
590 36.4683
595 30.049
600 23.5
Ex : 288
200 2.62098
205 2.28584
210 2.48849
215 2.73849
220 2.51361
225 2.39067
230 2.65199
235 2.6997
240 3.526
245 3.75514
250 3.13273
255 3.59604
260 4.92864
265 5.59125
270 8.36453
275 175.981
280 3313.09
285 5382.44
290 1335.13
295 173.31
300 36.51
305 19.2255
310 19.9998
315 21.247
320 16.6205
325 15.2115
330 14.5305
335 14.9212
340 15.0877
345 14.3201
350 15.0185
355 13.3936
360 12.5284
365 12.4696
370 11.3209
375 11.1933
380 11.0083
385 10.5461
390 10.6838
395 11.0858
400 10.6342
405 10.4093
410 10.3013
415 10.6196
420 9.40898
425 10.1315
430 9.63707
435 9.96289
440 9.59219
445 9.87567
450 9.54691
455 10.3913
460 10.4053
465 11.4124
470 10.617
475 10.5657
480 9.54054
485 10.0656
490 9.61637
495 9.576
500 10.6316
505 10.3152
510 10.1045
515 10.1543
520 11.087
525 11.887
530 13.4549
535 16.1198
540 19.2525
545 22.6786
550 29.6102
555 56.0982
560 1326.77
565 7763.65
570 9999.9
575 9999.9
580 4918.54
585 758.156
590 126.938
595 45.8894
600 38.2774
Ex : 293
200 2.11555
205 2.48998
210 2.39287
215 2.02144
220 2.33289
225 2.11684
230 2.17329
235 2.46832
240 2.51951
245 3.11632
250 2.67402
255 3.51252
260 3.39857
265 4.06299
270 6.2737
275 10.3558
280 222.241
285 3703.97
290 5667.27
295 1397.65
300 180.181
305 35.2134
310 18.0613
315 18.4485
320 19.6521
325 17.199
330 13.7823
335 13.9512
340 13.4161
345 12.7562
350 12.4146
355 11.9172
360 11.3146
365 11.7006
370 10.351
375 10.0378
380 10.6213
385 10.2201
390 9.66734
395 9.4175
400 9.57987
405 8.9672
410 9.42163
415 8.77744
420 7.7869
425 8.22662
430 8.67787
435 7.86325
440 8.37763
445 8.36789
450 9.64891
455 8.82925
460 8.81696
465 9.98774
470 9.14042
475 8.55252
480 8.59253
485 8.39199
490 8.0676
495 8.34723
500 8.00695
505 8.26562
510 8.96949
515 9.00947
520 9.5094
525 9.30574
530 9.88529
535 11.5882
540 12.3733
545 14.4518
550 17.0741
555 20.8418
560 29.6662
565 59.9903
570 1465.58
575 8147.92
580 9999.9
585 9999.9
590 4209.3
595 626.233
600 109.559
Ex : 298
200 1.84581
205 2.01693
210 1.97473
215 2.14342
220 2.14064
225 2.0351
230 1.81449
235 2.17916
240 2.43458
245 2.57758
250 2.79684
255 2.95783
260 3.15571
265 3.71274
270 4.48488
275 6.47931
280 11.2588
285 239.032
290 4078.61
295 6197.1
300 1555.03
305 198.708
310 38.2787
315 18.1593
320 18.4309
325 19.4672
330 16.0549
335 13.1724
340 12.3806
345 12.4172
350 12.0819
355 10.9426
360 10.8045
365 10.8851
370 9.50014
375 9.42576
380 9.20039
385 9.56719
390 9.07292
395 9.02637
400 8.59164
405 8.40246
410 8.77118
415 8.60229
420 7.95679
425 8.06842
430 8.13704
435 7.97132
440 8.38453
445 7.99101
450 8.13822
455 7.92883
460 8.47969
465 9.09154
470 8.59338
475 7.82748
480 7.40218
485 7.67978
490 7.30131
495 7.59509
500 7.19876
505 7.18662
510 7.18105
515 8.1715
520 7.80568
525 7.43794
530 8.75956
535 8.91951
540 10.0571
545 10.2439
550 11.6709
555 13.9063
560 16.8061
565 21.1863
570 27.5744
575 61.6484
580 1624.67
585 8438.76
590 9999.9
595 9999.9
600 7093.84
Ex : 303
200 1.83778
205 1.64316
210 1.73879
215 1.89146
220 1.82344
225 1.86683
230 2.0526
235 2.25896
240 2.14169
245 2.14296
250 2.39052
255 2.73344
260 2.44678
265 3.12467
270 4.19561
275 4.76768
280 6.95501
285 10.8509
290 259.439
295 4448.79
300 6827.36
305 1674.32
310 214.403
315 40.2285
320 18.3701
325 17.1059
330 18.4627
335 16.6191
340 12.7269
345 10.8411
350 10.8372
355 9.86154
360 9.32374
365 9.21691
370 8.62786
375 7.95089
380 8.44762
385 8.11621
390 8.43214
395 8.51541
400 8.15521
405 8.6162
410 7.88334
415 8.00299
420 8.09299
425 7.65205
430 7.38488
435 7.16297
440 7.26932
445 7.38081
450 7.60561
455 7.592
460 7.54003
465 7.16073
470 7.41993
475 7.23231
480 7.04707
485 6.87473
490 7.18916
495 6.83993
500 6.33167
505 6.72417
510 6.38167
515 6.44608
520 6.37795
525 7.00883
530 6.9794
535 7.42775
540 8.2389
545 9.40075
550 9.16316
555 10.314
560 11.1142
565 12.7127
570 15.7628
575 19.9871
580 26.5445
585 67.517
590 1825.61
595 8745.83
600 9999.9
Ex : 308
200 1.87583
205 1.99322
210 2.06146
215 1.82539
220 2.02484
225 1.66649
230 1.92161
235 1.92035
240 2.19155
245 1.9931
250 1.87489
255 2.22906
260 2.56025
265 3.17564
270 3.07052
275 3.77828
280 5.11986
285 6.93752
290 11.4272
295 319.284
300 5077.35
305 7653.18
310 1864.82
315 236.727
320 44.1589
325 18.839
330 15.9547
335 17.9832
340 16.9369
345 12.6275
350 10.558
355 9.25397
360 9.14062
365 8.64406
370 8.53836
375 7.7073
380 7.55498
385 7.63065
390 7.51026
395 7.9884
400 7.7974
405 7.05383
410 7.60326
415 8.00191
420 6.86418
425 7.07248
430 7.29718
435 7.00136
440 6.94422
445 7.11988
450 6.85236
455 6.80797
460 6.96659
465 7.29545
470 7.3004
475 6.71426
480 6.58311
485 6.35378
490 6.29383
495 6.49957
500 6.66656
505 5.82114
510 5.64033
515 5.48125
520 6.40111
525 6.17046
530 6.29266
535 6.54081
540 6.42456
545 7.06081
550 7.41008
555 8.87547
560 8.68323
565 9.74616
570 11.5921
575 13.242
580 15.2287
585 19.484
590 25.4384
595 79.7286
600 328.048
Ex : 313
200 1.9604
205 1.91465
210 2.15302
215 1.91793
220 2.02101
225 1.92657
230 1.74313
235 1.72273
240 2.05092
245 1.88024
250 2.05961
255 2.32653
260 2.51031
265 2.57298
270 2.99214
275 3.36291
280 3.93686
285 5.28604
290 7.60202
295 12.5146
300 343.674
305 5962.45
310 8821.99
315 2134.6
320 268.625
325 47.7208
330 18.9496
335 15.43
340 17.855
345 17.0097
350 13.217
355 9.68677
360 8.95728
365 8.66336
370 8.20292
375 8.42988
380 7.3176
385 7.30601
390 7.53656
395 7.59757
400 7.81399
405 7.137
410 6.98324
415 7.24812
420 6.59803
425 6.71056
430 6.27577
435 6.52241
440 6.61592
445 6.51173
450 6.11139
455 6.26911
460 6.54186
465 6.4425
470 7.02631
475 6.53927
480 6.16058
485 6.13909
490 6.59693
495 5.8554
500 5.58114
505 5.95716
510 5.9943
515 5.50769
520 5.84016
525 5.37916
530 5.27654
535 5.9185
540 6.26008
545 6.1924
550 6.63927
555 6.83715
560 6.89592
565 7.63301
570 8.71669
575 9.67817
580 10.006
585 11.873
590 14.5765
595 18.5194
600 19.4179
Ex : 318
200 1.65802
205 1.68065
210 1.43785
215 1.72044
220 1.79755
225 1.77599
230 1.79003
235 1.5543
240 1.65676
245 1.97944
250 1.97732
255 2.47378
260 2.18896
265 2.48267
270 2.70307
275 3.11529
280 3.61936
285 4.36011
290 5.78047
295 8.73512
300 13.6767
305 454.314
310 7020.4
315 9999.9
320 2384.47
325 299.949
330 52.5287
335 19.9656
340 15.5215
345 16.3247
350 16.8119
355 13.8429
360 9.61706
365 9.05265
370 8.86366
375 8.15183
380 7.77938
385 7.6549
390 7.50409
395 7.80192
400 7.40042
405 7.2096
410 7.52156
415 7.0208
420 6.92224
425 6.28234
430 6.19532
435 6.41164
440 5.95815
445 5.97509
450 6.35626
455 6.18917
460 6.37671
465 6.56746
470 6.32392
475 6.11709
480 6.19053
485 5.76821
490 6.02884
495 5.50572
500 5.60853
505 5.39814
510 5.39054
515 5.13224
520 4.85958
525 5.48746
530 5.40754
535 5.74961
540 5.40275
545 5.65112
550 5.93648
555 5.66685
560 6.13059
565 6.29883
570 6.6204
575 7.36875
580 7.95526
585 9.4708
590 10.5069
595 12.3055
600 12.5742
Ex : 323
200 1.72436
205 1.57114
210 1.62789
215 1.57162
220 1.81009
225 1.8186
230 1.66799
235 1.94977
240 1.51171
245 1.99096
250 1.73168
255 2.18824
260 2.18797
265 2.19499
270 2.78273
275 2.81191
280 3.23998
285 3.54419
290 4.40946
295 6.16904
300 8.38334
305 14.6444
310 494.285
315 7790.14
320 9999.9
325 2664.94
330 333.75
335 56.8788
340 21.1964
345 15.1584
350 16.6327
355 17.0737
360 14.3759
365 10.7777
370 9.00679
375 8.61533
380 8.31741
385 8.36407
390 7.98679
395 7.88169
400 6.98512
405 7.16306
410 6.88363
415 7.2604
420 7.03431
425 6.60899
430 6.15327
435 6.05072
440 6.1153
445 6.06795
450 6.09468
455 5.92744
460 6.16372
465 6.38215
470 6.2716
475 6.01204
480 5.62534
485 5.58147
490 5.22844
495 5.25164
500 5.58232
505 5.32661
510 5.16384
515 5.07392
520 5.01026
525 5.36099
530 5.06278
535 5.10741
540 5.23411
545 5.18742
550 5.16596
555 5.17427
560 5.75655
565 5.76933
570 6.03502
575 6.16689
580 6.63079
585 7.34468
590 7.68064
595 9.05654
600 10.8486
Ex : 328
200 1.51873
205 1.51329
210 1.66327
215 1.59909
220 1.42367
225 1.65724
230 1.93175
235 1.8643
240 1.761
245 1.81946
250 2.04294
255 2.27483
260 2.20531
265 2.0203
270 2.46698
275 2.81443
280 2.94935
285 3.44158
290 4.18839
295 5.03092
300 6.68329
305 9.38607
310 16.3564
315 535.845
320 8781.62
325 9999.9
330 2749.16
335 344.294
340 59.5617
345 21.4677
350 15.1098
355 14.9549
360 16.2856
365 15.1483
370 11.404
375 9.05133
380 8.27726
385 8.16881
390 8.19054
395 7.45559
400 7.42287
405 7.0472
410 6.46279
415 6.81015
420 6.56319
425 6.77842
430 6.10597
435 5.83983
440 5.71447
445 6.19797
450 5.78707
455 5.62589
460 6.32145
465 6.37905
470 6.09096
475 5.53874
480 5.80737
485 5.14034
490 5.42731
495 5.0874
500 4.95382
505 5.00369
510 4.80032
515 4.67449
520 4.77074
525 4.99739
530 4.87299
535 4.89662
540 4.84892
545 4.74412
550 4.86605
555 4.94238
560 4.89582
565 4.94314
570 5.36708
575 5.73102
580 5.89479
585 5.74242
590 6.58901
595 6.94862
600 7.98874
Ex : 333
200 1.55838
205 1.47499
210 1.37023
215 1.55733
220 1.60859
225 1.78579
230 1.77455
235 1.88671
240 1.63154
245 1.76128
250 1.90428
255 1.99646
260 2.12934
265 2.14118
270 2.02304
275 2.34713
280 2.59863
285 3.05098
290 3.76461
295 4.22561
300 5.2293
305 6.9586
310 10.111
315 17.4677
320 644.735
325 9476.52
330 9999.9
335 2826.49
340 353.923
345 59.9087
350 21.0531
355 14.1811
360 13.8249
365 14.8784
370 15.4048
375 11.9026
380 9.45278
385 8.5414
390 8.4949
395 7.95036
400 7.43125
405 7.34186
410 7.05588
415 6.9687
420 6.9079
425 6.17285
430 6.26834
435 6.06457
440 5.83822
445 5.92398
450 6.15078
455 5.9486
460 5.95566
465 5.92676
470 5.79297
475 5.29298
480 5.39459
485 5.27135
490 5.19305
495 4.96515
500 4.80421
505 4.71558
510 4.61842
515 4.69322
520 4.59696
525 4.54583
530 4.34077
535 4.64159
540 4.58353
545 4.69943
550 4.44365
555 4.41006
560 4.38971
565 4.59192
570 4.38092
575 4.56895
580 5.21489
585 5.11483
590 5.25628
595 5.59881
600 8.06627
Ex : 338
200 1.28588
205 1.30174
210 1.32683
215 1.42756
220 1.59392
225 1.6168
230 1.51277
235 1.53395
240 1.70382
245 1.7776
250 1.67259
255 1.86383
260 2.00324
265 2.1488
270 2.12463
275 2.44461
280 2.62255
285 2.8453
290 3.15151
295 3.45077
300 4.3558
305 5.55312
310 7.11488
315 10.3597
320 18.6761
325 715.621
330 9999.9
335 9999.9
340 2957.25
345 368.519
350 62.1466
355 21.321
360 14.4669
365 12.663
370 14.7737
375 15.0629
380 13.1439
385 9.84806
390 9.03625
395 8.11639
400 8.04827
405 7.57845
410 7.45053
415 6.82891
420 6.70204
425 6.77922
430 6.26113
435 6.05188
440 5.6232
445 5.7508
450 5.86441
455 5.79067
460 6.08276
465 5.97257
470 5.95376
475 5.34477
480 5.56243
485 5.44781
490 5.09439
495 4.87486
500 4.57709
505 4.4203
510 4.38853
515 4.18134
520 4.42192
525 4.38422
530 4.4161
535 4.20776
540 4.41384
545 4.11488
550 4.10895
555 4.24006
560 4.41121
565 4.37418
570 3.95373
575 4.15685
580 4.32779
585 4.09753
590 4.73804
595 4.87158
600 7.06558
Ex : 343
200 1.21697
205 1.33457
210 1.41806
215 1.49257
220 1.39113
225 1.52331
230 1.45696
235 1.50755
240 1.69963
245 1.70675
250 1.67695
255 1.86086
260 1.88826
265 1.97263
270 2.09694
275 2.2029
280 2.37507
285 2.6782
290 3.06309
295 3.32353
300 3.83535
305 4.37836
310 5.60344
315 8.05839
320 11.5852
325 19.8812
330 726.129
335 9999.9
340 9999.9
345 3147.52
350 391.905
355 64.6765
360 21.9037
365 14.6011
370 12.6796
375 13.7086
380 15.2256
385 14.0703
390 10.7485
395 8.70384
400 8.01546
405 7.75772
410 7.27597
415 7.15309
420 6.54749
425 6.45359
430 5.90272
435 6.10439
440 6.24345
445 6.04663
450 5.96142
455 5.63824
460 5.91121
465 6.21518
470 5.60489
475 5.77361
480 5.22794
485 5.37512
490 5.08555
495 4.87082
500 4.78255
505 4.47691
510 4.34096
515 4.60445
520 4.3196
525 4.12185
530 4.12113
535 4.034
540 4.1685
545 3.97147
550 4.14566
555 3.78064
560 3.99028
565 4.09414
570 3.8135
575 3.88406
580 3.76844
585 3.92812
590 4.14452
595 4.15361
600 6.37577
Ex : 348
200 1.2243
205 1.2866
210 1.20924
215 1.25816
220 1.41687
225 1.40315
230 1.34391
235 1.45756
240 1.44051
245 1.6196
250 1.54175
255 1.50529
260 1.72999
265 1.89371
270 1.95866
275 2.24842
280 2.05772
285 2.31752
290 2.51669
295 2.8507
300 3.18111
305 4.03014
310 4.71026
315 5.82666
320 8.02791
325 11.503
330 21.0631
335 705.881
340 9999.9
345 9999.9
350 3480.99
355 430.711
360 69.4368
365 22.4126
370 14.726
375 12.498
380 12.5182
385 13.8769
390 14.1433
395 11.5026
400 8.83599
405 7.7427
410 7.49476
415 7.22366
420 6.83303
425 6.53702
430 6.33103
435 6.10013
440 6.06568
445 5.96012
450 5.80739
455 5.893
460 5.62987
465 5.48676
470 5.41903
475 5.16043
480 5.22913
485 4.73118
490 4.5139
495 4.37272
500 4.35074
505 4.27408
510 4.37651
515 4.0848
520 3.81751
525 3.90582
530 3.79289
535 4.01469
540 3.92827
545 3.81339
550 3.34755
555 3.51717
560 3.59923
565 3.58037
570 3.39688
575 3.25988
580 3.26204
585 3.28319
590 3.38649
595 3.6238
600 3.33912
Ex : 353
200 1.25389
205 1.23643
210 1.26576
215 1.19111
220 1.43465
225 1.32325
230 1.35222
235 1.29796
240 1.37505
245 1.46281
250 1.50417
255 1.60759
260 1.61494
265 1.62952
270 1.84791
275 1.93492
280 1.89364
285 2.27526
290 2.38934
295 2.62421
300 2.69214
305 3.27794
310 3.91003
315 4.89775
320 5.98909
325 8.30281
330 12.2099
335 21.3564
340 739.427
345 9999.9
350 9999.9
355 3467.73
360 429.385
365 69.7585
370 22.7664
375 15.0474
380 12.0122
385 11.7136
390 14.0064
395 14.378
400 11.7449
405 9.30991
410 8.26861
415 7.51624
420 7.46771
425 6.9062
430 6.7776
435 6.33202
440 5.98378
445 6.11854
450 5.9602
455 5.50283
460 5.70112
465 5.61334
470 5.37454
475 5.19816
480 5.24384
485 5.13164
490 4.82726
495 4.50103
500 4.42726
505 4.24163
510 3.88025
515 3.90903
520 3.71833
525 4.012
530 3.86999
535 3.36583
540 3.51536
545 3.5733
550 3.82717
555 3.48406
560 3.49583
565 3.23194
570 3.33098
575 3.32353
580 3.09998
585 3.0678
590 3.05779
595 3.18396
600 3.86004
Ex : 358
200 1.22795
205 1.06656
210 1.1346
215 1.14331
220 1.13198
225 1.22449
230 1.18059
235 1.32917
240 1.42392
245 1.31704
250 1.32688
255 1.55871
260 1.50259
265 1.54963
270 1.8731
275 1.96536
280 2.00609
285 2.06931
290 2.3065
295 2.30136
300 2.58869
305 2.9773
310 3.50652
315 3.98382
320 4.7444
325 6.28158
330 8.52624
335 12.7927
340 21.5362
345 769.151
350 9999.9
355 9999.9
360 3665.24
365 453.351
370 73.0942
375 23.9147
380 15.1081
385 12.5246
390 11.4546
395 13.116
400 13.7698
405 12.7527
410 9.78021
415 7.94209
420 7.46665
425 7.42713
430 6.7864
435 6.19225
440 5.93299
445 5.75207
450 5.55127
455 5.83926
460 5.76535
465 5.55961
470 5.45521
475 5.25841
480 5.14582
485 4.82471
490 4.57853
495 4.51122
500 4.46343
505 4.06956
510 3.86659
515 3.94219
520 3.53138
525 3.39137
530 3.51778
535 3.25216
540 3.37498
545 3.54802
550 3.09724
555 3.25002
560 3.2555
565 3.11978
570 3.21043
575 2.92557
580 3.05694
585 3.11358
590 2.70506
595 2.76559
600 1.84361
Ex : 363
200 1.23226
205 1.19885
210 1.0827
215 1.1687
220 1.2216
225 1.10442
230 1.03947
235 1.13402
240 1.29518
245 1.28843
250 1.41289
255 1.33203
260 1.37744
265 1.44628
270 1.51303
275 1.73024
280 1.78628
285 1.84452
290 2.04061
295 2.09404
300 2.48881
305 2.67134
310 2.80115
315 3.33022
320 3.99529
325 5.08032
330 6.30878
335 8.76871
340 13.0166
345 22.1013
350 734.05
355 9999.9
360 9999.9
365 3833.48
370 472.984
375 75.2525
380 23.9162
385 15.3724
390 12.5385
395 10.8984
400 12.2429
405 13.377
410 12.845
415 9.7108
420 7.85372
425 7.10461
430 6.64493
435 6.36947
440 6.13293
445 5.96678
450 5.81839
455 5.82089
460 5.69579
465 5.7137
470 5.53367
475 4.99473
480 4.84758
485 4.54435
490 4.43992
495 4.27964
500 4.25449
505 3.98051
510 3.88327
515 3.50461
520 3.55537
525 3.48291
530 3.23061
535 3.27541
540 3.03913
545 3.13633
550 2.84892
555 3.03269
560 2.77164
565 3.01895
570 2.91925
575 2.74789
580 2.56245
585 2.5716
590 2.48634
595 2.45056
600 3.40009
Ex : 368
200 1.02783
205 1.06402
210 1.11487
215 1.10439
220 1.15859
225 1.117
230 1.17716
235 1.20094
240 1.18673
245 1.16001
250 1.31914
255 1.3921
260 1.38958
265 1.35368
270 1.43148
275 1.55165
280 1.63573
285 1.78667
290 2.0196
295 2.15394
300 2.28803
305 2.41919
310 2.63342
315 2.9501
320 3.43947
325 4.10419
330 5.06747
335 6.72473
340 8.89577
345 12.8895
350 22.5676
355 610.752
360 9999.9
365 9999.9
370 4302.88
375 530.908
380 81.8174
385 24.8356
390 15.5249
395 12.7751
400 10.8301
405 11.0707
410 12.6499
415 12.1817
420 11.0476
425 8.45667
430 7.30016
435 6.5349
440 6.59512
445 6.16624
450 5.91843
455 5.69548
460 5.53516
465 5.33615
470 5.22411
475 5.02865
480 4.89528
485 4.62772
490 4.54746
495 4.22481
500 3.94929
505 4.09557
510 3.75691
515 3.34042
520 3.27014
525 3.3072
530 3.1721
535 3.03358
540 2.93038
545 2.96227
550 2.92086
555 2.94106
560 2.88203
565 2.71691
570 2.63226
575 2.73249
580 2.49718
585 2.4279
590 2.44368
595 2.2664
600 2.83976
Ex : 373
200 1.02064
205 1.17028
210 1.10384
215 1.08742
220 1.0957
225 1.01699
230 1.04631
235 1.09687
240 1.09834
245 1.30272
250 1.29372
255 1.29645
260 1.27558
265 1.31612
270 1.38955
275 1.43947
280 1.58708
285 1.84396
290 1.81792
295 1.8928
300 2.05492
305 2.22419
310 2.40126
315 2.86531
320 3.12907
325 3.68286
330 4.28837
335 5.31559
340 6.81525
345 8.96442
350 13.3776
355 22.3118
360 785.264
365 9999.9
370 9999.9
375 4266.67
380 525.02
385 82.1081
390 25.3642
395 15.9803
400 12.5621
405 10.2205
410 10.5916
415 12.3651
420 12.7284
425 11.2092
430 8.62428
435 7.09031
440 6.51325
445 6.29757
450 5.90632
455 5.92799
460 5.72511
465 5.62619
470 5.27834
475 5.06445
480 4.81734
485 4.54396
490 4.38578
495 4.0163
500 3.59048
505 3.67837
510 3.83578
515 3.51633
520 3.32901
525 3.1551
530 3.0945
535 2.97277
540 2.97665
545 2.8193
550 2.68934
555 2.76416
560 2.66864
565 2.58027
570 2.53732
575 2.42559
580 2.33119
585 2.1931
590 2.17513
595 2.38128
600 2.85657
Ex : 378
200 1.06815
205 1.0173
210 0.997843
215 1.05176
220 1.11182
225 1.01318
230 1.05035
235 0.960708
240 1.10972
245 1.05736
250 1.18232
255 1.26289
260 1.2337
265 1.3664
270 1.47435
275 1.44686
280 1.55626
285 1.56962
290 1.68686
295 1.77757
300 1.90764
305 2.09591
310 2.31186
315 2.55582
320 2.68089
325 3.32635
330 3.72746
335 4.42668
340 5.41441
345 7.01637
350 9.30209
355 13.7374
360 23.284
365 770.838
370 9999.9
375 9999.9
380 4373.14
385 538.432
390 85.011
395 25.9336
400 15.5325
405 12.6915
410 10.0825
415 9.88458
420 11.2076
425 11.6884
430 11.0469
435 9.02484
440 7.13882
445 6.65423
450 5.99443
455 5.9596
460 5.52732
465 5.63627
470 5.24914
475 4.93052
480 4.80099
485 4.67766
490 4.54754
495 3.90811
500 4.00895
505 3.75471
510 3.58351
515 3.46506
520 3.2025
525 3.25123
530 3.03488
535 2.92082
540 2.8195
545 2.5923
550 2.57781
555 2.47085
560 2.52386
565 2.3432
570 2.2528
575 2.38723
580 2.10825
585 2.18196
590 2.09817
595 1.98238
600 2.34559
Ex : 383
200 0.912433
205 0.960088
210 0.990166
215 0.983856
220 1.04653
225 1.0864
230 1.0102
235 1.08947
240 1.03721
245 1.12065
250 1.03785
255 1.19723
260 1.28274
265 1.24077
270 1.5215
275 1.49781
280 1.39515
285 1.45702
290 1.5939
295 1.68433
300 1.82602
305 1.98071
310 2.08714
315 2.47289
320 2.60404
325 2.95754
330 3.14497
335 3.7518
340 4.27125
345 5.51504
350 6.97513
355 9.11537
360 13.5461
365 23.433
370 717.563
375 9999.9
380 9999.9
385 4676.41
390 576.405
395 89.104
400 26.397
405 16.1177
410 12.783
415 10.5205
420 9.37006
425 10.5212
430 11.3669
435 11.4253
440 9.35203
445 7.54326
450 6.66223
455 6.18257
460 6.13641
465 5.83485
470 5.53649
475 4.97426
480 4.89037
485 4.58535
490 4.4852
495 3.95
500 3.82964
505 3.68707
510 3.38833
515 3.2118
520 3.12464
525 3.24075
530 3.02485
535 2.67947
540 2.84725
545 2.66276
550 2.53831
555 2.52423
560 2.49512
565 2.29284
570 2.22126
575 2.09167
580 1.92374
585 1.8492
590 1.81689
595 1.92852
600 2.27013
Ex : 388
200 0.993237
205 1.09774
210 0.97445
215 0.983807
220 0.948455
225 1.068
230 1.09625
235 1.08861
240 1.09697
245 1.16399
250 1.11995
255 1.15261
260 1.23846
265 1.29919
270 1.34762
275 1.30644
280 1.45013
285 1.68046
290 1.78223
295 1.71813
300 1.71713
305 2.00836
310 2.11196
315 2.10378
320 2.3803
325 2.60314
330 3.07581
335 3.31721
340 3.92362
345 4.49013
350 5.7364
355 7.2824
360 9.66837
365 14.5135
370 25.3279
375 794.672
380 9999.9
385 9999.9
390 4753.92
395 584.414
400 90.3903
405 26.4945
410 16.2497
415 12.5299
420 9.90673
425 8.95535
430 10.0986
435 11.5434
440 11.0184
445 10.262
450 7.90958
455 6.71097
460 6.38041
465 5.96858
470 5.54719
475 5.23319
480 4.83654
485 4.75624
490 4.58032
495 4.24133
500 3.92328
505 3.77266
510 3.58826
515 3.45319
520 3.19126
525 3.1623
530 3.08732
535 2.93376
540 2.86205
545 2.88364
550 2.43959
555 2.33094
560 2.44494
565 2.27454
570 2.13691
575 2.21717
580 2.12187
585 2.02485
590 1.895
595 1.8543
600 1.75312
Ex : 393
200 0.944752
205 1.03004
210 0.977049
215 1.05768
220 1.06422
225 1.13347
230 1.08975
235 1.2574
240 1.19304
245 1.09371
250 1.09317
255 1.138
260 1.18689
265 1.15133
270 1.28861
275 1.42552
280 1.41457
285 1.50504
290 1.54806
295 1.66584
300 1.80472
305 1.82703
310 1.98418
315 2.14698
320 2.37778
325 2.6904
330 2.90491
335 3.32851
340 3.59461
345 4.13773
350 4.85085
355 5.82743
360 7.48407
365 10.1463
370 14.7004
375 25.0271
380 746.948
385 9999.9
390 9999.9
395 5132.57
400 629.525
405 95.1036
410 27.8266
415 16.581
420 12.7429
425 9.88696
430 8.62282
435 9.15181
440 10.9674
445 11.0242
450 10.2896
455 8.48874
460 6.84757
465 6.52096
470 6.03369
475 5.32054
480 4.87261
485 4.65952
490 4.44241
495 4.21198
500 3.90973
505 3.71644
510 3.61428
515 3.45873
520 3.15885
525 2.95124
530 2.92041
535 2.76964
540 2.82501
545 2.57834
550 2.58306
555 2.47482
560 2.46932
565 2.37446
570 2.33283
575 1.96265
580 1.91751
585 1.8533
590 1.82392
595 1.93594
600 2.36426
Ex : 398
200 0.987523
205 1.03774
210 0.99128
215 1.00431
220 0.966932
225 0.965652
230 0.997938
235 1.05001
240 1.07884
245 1.19218
250 1.14319
255 1.07964
260 1.20745
265 1.26144
270 1.33319
275 1.50529
280 1.28818
285 1.38819
290 1.40853
295 1.65428
300 1.87024
305 1.73911
310 1.9719
315 2.18908
320 2.29226
325 2.36289
330 2.56327
335 2.95551
340 3.25391
345 3.71799
350 4.27918
355 4.92802
360 6.02911
365 7.57159
370 10.6323
375 15.1124
380 25.8438
385 821.492
390 9999.9
395 9999.9
400 5286.06
405 648.317
410 98.0902
415 27.4761
420 16.2232
425 12.4352
430 9.66169
435 8.66319
440 8.95173
445 10.3852
450 10.7273
455 10.2522
460 9.07092
465 7.26159
470 6.35112
475 5.66638
480 5.23052
485 4.99054
490 4.63824
495 4.20358
500 3.89196
505 3.74684
510 3.81085
515 3.43088
520 3.3429
525 3.29257
530 3.20978
535 2.92705
540 2.91486
545 2.83489
550 2.66644
555 2.50587
560 2.45993
565 2.34217
570 2.07012
575 2.04406
580 1.95222
585 2.0367
590 1.85213
595 1.82092
600 1.52603
Ex : 403
200 1.00224
205 1.03548
210 1.07689
215 1.06702
220 1.05347
225 1.00558
230 0.99221
235 1.09414
240 1.13121
245 1.11863
250 1.26503
255 1.23063
260 1.27249
265 1.24727
270 1.29071
275 1.37702
280 1.43217
285 1.42791
290 1.50982
295 1.52515
300 1.66985
305 1.64921
310 1.86821
315 1.99137
320 2.07218
325 2.36422
330 2.42053
335 2.64802
340 2.93647
345 3.25975
350 3.68305
355 4.54348
360 5.0431
365 5.93539
370 7.66837
375 10.6075
380 15.3789
385 26.9315
390 902.203
395 9999.9
400 9999.9
405 5292.59
410 646.826
415 97.1881
420 27.5887
425 16.124
430 12.2487
435 9.85546
440 8.54109
445 8.59723
450 9.8695
455 10.4561
460 10.1724
465 9.41537
470 7.30437
475 6.00838
480 5.55766
485 4.82514
490 4.7457
495 4.55947
500 4.17548
505 3.84523
510 3.71469
515 3.44516
520 3.32422
525 2.89736
530 2.97732
535 2.89987
540 2.68051
545 2.68301
550 2.55327
555 2.54248
560 2.47862
565 2.3532
570 2.21927
575 2.03646
580 1.96403
585 1.83514
590 1.71425
595 1.75646
600 1.24816
Ex : 408
200 1.05701
205 1.08922
210 0.973458
215 1.01042
220 1.06795
225 1.04227
230 1.01993
235 1.17794
240 1.06809
245 1.16436
250 1.22508
255 1.21293
260 1.26699
265 1.23534
270 1.30908
275 1.22654
280 1.36844
285 1.44792
290 1.54282
295 1.61217
300 1.67632
305 1.77751
310 1.78159
315 2.04299
320 2.05984
325 2.30896
330 2.26376
335 2.46735
340 2.73078
345 3.17241
350 3.41318
355 3.87559
360 4.72955
365 5.3
370 6.65695
375 8.38694
380 11.3189
385 16.9694
390 29.5956
395 921.991
400 9999.9
405 9999.9
410 5376.17
415 658.918
420 99.1877
425 27.8517
430 16.6678
435 12.6317
440 9.87141
445 8.9442
450 8.5407
455 9.42218
460 10.4122
465 10.1224
470 9.34937
475 7.50979
480 6.08505
485 5.2919
490 5.02442
495 4.40593
500 4.0824
505 3.75699
510 3.63081
515 3.47502
520 3.30679
525 3.08109
530 3.11553
535 2.72871
540 2.82564
545 2.65666
550 2.57533
555 2.54171
560 2.39906
565 2.27973
570 2.31425
575 2.07038
580 1.9752
585 1.90081
590 1.70006
595 1.69999
600 1.96328
Ex : 413
200 1.04239
205 0.990626
210 1.05967
215 1.00446
220 0.941236
225 1.0653
230 1.06538
235 1.08022
240 1.09137
245 1.05395
250 1.16038
255 1.21537
260 1.13419
265 1.33039
270 1.24023
275 1.24835
280 1.27716
285 1.37081
290 1.29109
295 1.41275
300 1.46478
305 1.53394
310 1.71793
315 1.79927
320 1.89964
325 1.94884
330 2.166
335 2.51173
340 2.56434
345 2.80402
350 3.12116
355 3.43528
360 3.87253
365 4.52153
370 5.29978
375 6.28586
380 8.32909
385 11.4391
390 17.1448
395 28.6743
400 987.549
405 9999.9
410 9999.9
415 5003.61
420 611.588
425 92.4101
430 26.2191
435 16.0209
440 11.9632
445 9.60641
450 8.54295
455 8.18723
460 8.9997
465 10.06
470 9.2598
475 8.67668
480 7.41073
485 5.73427
490 5.19545
495 4.53103
500 4.38829
505 3.89765
510 3.71153
515 3.43089
520 3.37726
525 3.18261
530 2.98356
535 2.93031
540 2.85531
545 2.86874
550 2.57559
555 2.46724
560 2.34129
565 2.25388
570 2.12588
575 1.8342
580 1.92806
585 1.76601
590 1.60279
595 1.66756
600 1.90443
Ex : 418
200 0.901666
205 0.889964
210 0.967592
215 0.951346
220 0.91113
225 0.916544
230 1.01186
235 1.0344
240 1.05544
245 1.0967
250 1.0622
255 1.09285
260 1.06716
265 1.16401
270 1.16156
275 1.27378
280 1.18615
285 1.21215
290 1.26605
295 1.40719
300 1.44885
305 1.53605
310 1.62041
315 1.69826
320 1.76766
325 1.90831
330 2.00793
335 2.25347
340 2.46041
345 2.56413
350 2.84412
355 3.12124
360 3.4972
365 3.95004
370 4.51379
375 5.28057
380 6.38245
385 8.324
390 11.5423
395 17.1834
400 28.5774
405 911.956
410 9999.9
415 9999.9
420 5259.71
425 640.719
430 95.9886
435 26.8341
440 15.8587
445 12.4278
450 9.59419
455 8.40815
460 7.92459
465 8.45483
470 9.18004
475 9.27731
480 8.47132
485 7.62823
490 5.83386
495 4.70038
500 4.50522
505 3.90181
510 3.80605
515 3.39048
520 3.24242
525 3.09568
530 3.07286
535 2.94457
540 2.78747
545 2.55677
550 2.51026
555 2.45828
560 2.35477
565 2.27367
570 1.98479
575 2.0033
580 1.78884
585 1.69221
590 1.50994
595 1.57021
600 1.7333
Ex : 423
200 0.943501
205 0.954756
210 0.930799
215 0.911186
220 0.995406
225 0.993009
230 0.98515
235 1.03221
240 0.982638
245 1.04358
250 1.02883
255 1.01186
260 1.02047
265 1.14683
270 1.22086
275 1.18957
280 1.22617
285 1.23792
290 1.32214
295 1.3662
300 1.37686
305 1.5062
310 1.5383
315 1.69255
320 1.61412
325 1.77604
330 1.94665
335 2.22693
340 2.29409
345 2.30724
350 2.59485
355 2.83921
360 3.17483
365 3.43763
370 4.07653
375 4.53861
380 5.34518
385 6.78946
390 8.72052
395 12.186
400 17.591
405 28.8849
410 948.215
415 9999.9
420 9999.9
425 4947.83
430 605.424
435 91.6611
440 26.5635
445 16.3812
450 12.5685
455 9.63697
460 8.60468
465 8.18116
470 7.82335
475 8.2238
480 8.61226
485 8.134
490 7.56819
495 5.96564
500 4.79324
505 4.10921
510 3.86137
515 3.51288
520 3.37986
525 3.20275
530 2.90558
535 2.84479
540 2.86299
545 2.70123
550 2.56835
555 2.55435
560 2.56769
565 2.33134
570 2.15203
575 1.91294
580 1.85883
585 1.74381
590 1.64812
595 1.51971
600 1.68174
Ex : 428
200 0.934534
205 0.961469
210 1.01339
215 0.924511
220 1.00427
225 0.93841
230 0.984724
235 0.961414
240 1.0888
245 1.10087
250 1.0068
255 1.14508
260 1.11075
265 1.09341
270 1.19618
275 1.20327
280 1.28831
285 1.31216
290 1.36222
295 1.39978
300 1.36733
305 1.61214
310 1.56948
315 1.62302
320 1.68331
325 1.90079
330 2.02431
335 2.10472
340 2.20025
345 2.38827
350 2.55775
355 2.81124
360 3.1137
365 3.33265
370 3.71345
375 4.17315
380 5.07222
385 6.08034
390 7.53471
395 9.29414
400 12.6624
405 18.5544
410 31.0957
415 1092.58
420 9999.9
425 9999.9
430 5320.81
435 650.235
440 97.8159
445 28.347
450 17.409
455 13.2974
460 10.1435
465 9.31133
470 8.14781
475 7.70596
480 8.19741
485 8.59171
490 7.93559
495 7.4548
500 6.30503
505 5.06028
510 4.27354
515 3.89273
520 3.61413
525 3.37316
530 3.23321
535 3.10638
540 2.75346
545 2.61594
550 2.60097
555 2.59758
560 2.28262
565 2.42816
570 2.08104
575 2.02081
580 1.8192
585 1.94432
590 1.74239
595 1.61832
600 1.83291
Ex : 433
200 0.975455
205 0.995655
210 1.01748
215 1.05075
220 0.95326
225 1.004
230 1.00127
235 0.928632
240 1.0084
245 1.02759
250 1.06055
255 1.0572
260 1.11355
265 1.20531
270 1.19887
275 1.13298
280 1.1942
285 1.40198
290 1.29215
295 1.32514
300 1.36477
305 1.55006
310 1.52223
315 1.48831
320 1.61373
325 1.70261
330 1.9168
335 1.92541
340 2.20565
345 2.2565
350 2.42726
355 2.54934
360 2.70275
365 3.05543
370 3.58908
375 3.98955
380 4.33603
385 5.14445
390 6.07163
395 7.66111
400 9.62369
405 13.2255
410 19.3347
415 32.2293
420 1170.42
425 9999.9
430 9999.9
435 5223.05
440 638.073
445 97.3887
450 29.1396
455 17.6407
460 13.8196
465 10.4583
470 9.07284
475 7.66307
480 7.38203
485 7.67861
490 8.25093
495 7.92606
500 7.34789
505 6.64985
510 5.23099
515 4.08425
520 3.66552
525 3.37769
530 3.40475
535 3.00731
540 2.98024
545 2.70962
550 2.63909
555 2.51402
560 2.50635
565 2.36646
570 2.16805
575 2.02718
580 1.87806
585 1.83628
590 1.77584
595 1.72379
600 1.901
Ex : 438
200 0.943341
205 1.041
210 1.01572
215 0.917587
220 1.02024
225 1.09352
230 0.936682
235 0.956698
240 1.0217
245 1.10623
250 1.12263
255 1.17573
260 1.08996
265 1.22982
270 1.26807
275 1.26698
280 1.38029
285 1.38691
290 1.36374
295 1.38162
300 1.34157
305 1.42465
310 1.47256
315 1.57616
320 1.60435
325 1.70214
330 1.8484
335 2.00098
340 2.10078
345 2.25537
350 2.55926
355 2.60142
360 2.6726
365 3.03108
370 3.46871
375 3.7477
380 4.09178
385 4.79501
390 5.5782
395 6.47984
400 7.95504
405 10.0536
410 13.9118
415 19.9393
420 33.251
425 1152.58
430 9999.9
435 9999.9
440 5537.07
445 677.45
450 103.172
455 29.8978
460 18.4851
465 14.5256
470 10.7032
475 8.64686
480 7.90684
485 7.50055
490 7.4263
495 7.87901
500 7.99502
505 7.44937
510 6.47024
515 5.34466
520 4.32573
525 3.65122
530 3.58367
535 3.34318
540 3.14992
545 3.0249
550 2.75465
555 2.63531
560 2.49476
565 2.3331
570 2.22869
575 2.14746
580 2.08862
585 1.66811
590 1.74441
595 1.6192
600 1.74027
Ex : 443
200 1.04462
205 1.01453
210 0.901407
215 0.982116
220 1.10789
225 0.992049
230 1.00409
235 1.07317
240 1.01749
245 1.09561
250 1.15347
255 1.11928
260 1.06234
265 1.09777
270 1.27847
275 1.24656
280 1.33588
285 1.30466
290 1.31055
295 1.29632
300 1.45694
305 1.43129
310 1.4821
315 1.55269
320 1.6674
325 1.85095
330 1.81994
335 1.87839
340 2.16923
345 2.26452
350 2.35393
355 2.78074
360 2.79976
365 2.85924
370 3.2603
375 3.46223
380 3.80696
385 4.43077
390 5.16715
395 5.79395
400 6.7673
405 8.43534
410 10.7335
415 13.9845
420 20.6429
425 34.1687
430 1327.33
435 9999.9
440 9999.9
445 5419.64
450 663.396
455 101.889
460 30.7031
465 19.6631
470 14.0575
475 10.2588
480 8.57331
485 7.70607
490 7.27225
495 7.13095
500 7.32391
505 7.45829
510 6.83345
515 6.59323
520 5.67748
525 4.47106
530 3.5985
535 3.34849
540 3.17053
545 3.07468
550 2.88969
555 2.59627
560 2.66142
565 2.37982
570 2.26769
575 2.19056
580 1.97528
585 1.7554
590 1.83774
595 1.73531
600 2.52767
Ex : 448
200 1.07032
205 0.987037
210 1.02124
215 1.06446
220 1.0589
225 1.085
230 1.04963
235 1.20576
240 1.08189
245 1.13219
250 1.12132
255 1.06498
260 1.08146
265 1.18796
270 1.17293
275 1.17479
280 1.2953
285 1.26624
290 1.43969
295 1.36888
300 1.43831
305 1.57408
310 1.60325
315 1.5471
320 1.82417
325 1.74886
330 1.87096
335 1.95465
340 2.09095
345 2.22487
350 2.33316
355 2.49715
360 2.63775
365 2.80921
370 3.08981
375 3.17333
380 3.63386
385 3.91661
390 4.59084
395 5.11852
400 5.84678
405 6.93302
410 8.52069
415 11.1214
420 14.5945
425 20.8113
430 34.6361
435 1338.59
440 9999.9
445 9999.9
450 5438.21
455 666.575
460 103.32
465 31.9846
470 19.0753
475 13.5427
480 9.93569
485 8.55832
490 7.97632
495 7.23578
500 6.60011
505 6.71488
510 7.16323
515 6.67058
520 6.18966
525 5.7428
530 4.79042
535 3.89442
540 3.41177
545 3.19011
550 2.95967
555 2.80002
560 2.78004
565 2.53234
570 2.36885
575 2.05391
580 1.94348
585 1.88878
590 1.84573
595 1.62438
600 1.6324
Ex : 453
200 1.01742
205 0.979629
210 1.05116
215 0.970955
220 1.06224
225 1.07175
230 1.04123
235 1.07227
240 1.01884
245 1.09883
250 1.08182
255 1.11367
260 1.14537
265 1.15678
270 1.09671
275 1.13669
280 1.34137
285 1.35229
290 1.38306
295 1.41355
300 1.48352
305 1.64482
310 1.61806
315 1.49672
320 1.64994
325 1.78579
330 1.80588
335 1.90285
340 2.03581
345 2.06568
350 2.36735
355 2.4776
360 2.50791
365 2.77237
370 3.00259
375 3.08229
380 3.49248
385 3.77542
390 4.14384
395 4.56978
400 5.1635
405 6.02452
410 7.06332
415 8.52346
420 10.8395
425 14.2624
430 20.5595
435 34.8148
440 1402.29
445 9999.9
450 9999.9
455 5335.94
460 656.21
465 103.522
470 30.9024
475 18.1292
480 13.1558
485 9.41118
490 8.15039
495 7.38207
500 7.08128
505 6.70102
510 6.43349
515 6.92104
520 6.65168
525 5.83839
530 5.4401
535 4.6877
540 3.63649
545 3.31319
550 3.10921
555 2.86655
560 2.72812
565 2.56216
570 2.39017
575 2.30318
580 2.07469
585 1.89611
590 1.99411
595 1.86126
600 1.74275
Ex : 458
200 0.95651
205 1.1256
210 1.06596
215 1.11816
220 1.13674
225 1.05688
230 1.05569
235 1.20933
240 1.14937
245 1.09761
250 1.11286
255 1.14127
260 1.14267
265 1.27788
270 1.21305
275 1.35046
280 1.26645
285 1.39848
290 1.42949
295 1.48668
300 1.56003
305 1.59976
310 1.71085
315 1.55348
320 1.66048
325 1.77
330 1.92989
335 1.93681
340 2.01736
345 2.03265
350 2.2102
355 2.33485
360 2.46327
365 2.72446
370 2.89195
375 3.03277
380 3.17921
385 3.3996
390 3.74407
395 4.25018
400 4.67932
405 5.36101
410 6.02522
415 7.08156
420 8.40371
425 10.8498
430 14.0716
435 21.2159
440 35.3577
445 1530.06
450 9999.9
455 9999.9
460 5698.43
465 700.816
470 107.776
475 30.1962
480 17.8155
485 13.1836
490 9.76624
495 7.98331
500 7.23641
505 7.1345
510 6.85048
515 6.37177
520 6.61372
525 6.80341
530 5.97788
535 5.65333
540 5.02805
545 3.9614
550 3.49407
555 3.11043
560 2.98054
565 2.91836
570 2.6775
575 2.44615
580 2.27271
585 2.11038
590 1.95488
595 1.88144
600 1.63615
Ex : 463
200 1.02444
205 1.04812
210 1.0856
215 1.04229
220 1.10891
225 1.08424
230 1.2159
235 1.04906
240 1.16888
245 1.11767
250 1.11207
255 1.15297
260 1.07232
265 1.18979
270 1.29102
275 1.1767
280 1.2621
285 1.39044
290 1.39377
295 1.47272
300 1.48117
305 1.59955
310 1.57263
315 1.65896
320 1.73811
325 1.70776
330 1.72133
335 1.89846
340 2.04198
345 2.05304
350 2.11177
355 2.23083
360 2.34941
365 2.58003
370 2.9022
375 2.87481
380 3.03442
385 3.32769
390 3.69728
395 4.0623
400 4.20532
405 4.77214
410 5.39026
415 6.11856
420 7.29333
425 8.50964
430 10.9375
435 14.5857
440 21.3066
445 36.6191
450 1488.6
455 9999.9
460 9999.9
465 5815.05
470 712.432
475 106.596
480 29.7596
485 17.5845
490 12.884
495 9.18736
500 7.57631
505 7.13832
510 6.88666
515 6.20955
520 6.21264
525 6.05381
530 6.32713
535 5.43508
540 5.36423
545 4.84256
550 4.13069
555 3.33495
560 2.88537
565 2.76111
570 2.62844
575 2.37359
580 2.28477
585 2.10846
590 1.99118
595 1.91554
600 2.15977
Ex : 468
200 1.1119
205 1.10917
210 1.15772
215 1.04556
220 1.07132
225 1.11612
230 1.09892
235 1.05997
240 1.17711
245 1.12729
250 1.12282
255 1.15969
260 1.2518
265 1.18663
270 1.21432
275 1.26824
280 1.32494
285 1.3244
290 1.29513
295 1.45622
300 1.48992
305 1.5835
310 1.50479
315 1.61969
320 1.72827
325 1.75371
330 1.78113
335 1.89757
340 1.98393
345 2.06625
350 2.08252
355 2.23269
360 2.37778
365 2.46458
370 2.50952
375 2.81721
380 3.19145
385 3.02981
390 3.48604
395 3.78127
400 3.92226
405 4.22889
410 4.69092
415 5.21222
420 6.06487
425 6.7365
430 8.35191
435 10.7222
440 14.1202
445 20.9748
450 35.131
455 1592.5
460 9999.9
465 9999.9
470 6043.97
475 731.664
480 108.193
485 28.9294
490 17.0466
495 12.2471
500 8.74754
505 7.38763
510 6.95196
515 6.62031
520 6.24144
525 5.85762
530 5.88832
535 5.89194
540 5.58285
545 4.88106
550 4.76468
555 4.29645
560 3.31441
565 3.00112
570 2.75757
575 2.47851
580 2.32592
585 2.30784
590 2.06501
595 1.81427
600 1.90369
Ex : 473
200 1.19197
205 1.09839
210 1.11628
215 1.08359
220 1.07359
225 1.11885
230 1.38539
235 1.20958
240 1.19227
245 1.20163
250 1.18436
255 1.32554
260 1.14732
265 1.19049
270 1.21992
275 1.27462
280 1.33871
285 1.17432
290 1.27981
295 1.38271
300 1.26957
305 1.48465
310 1.60501
315 1.48706
320 1.76504
325 1.8579
330 1.86879
335 1.8046
340 1.92063
345 1.85785
350 2.03128
355 2.18188
360 2.3044
365 2.32847
370 2.4416
375 2.77585
380 2.94063
385 3.17885
390 3.35443
395 3.63321
400 3.92509
405 4.2053
410 4.53597
415 5.01511
420 5.53486
425 6.18661
430 6.92878
435 8.46088
440 11.0437
445 15.0877
450 22.0122
455 37.3979
460 1772.09
465 9999.9
470 9999.9
475 5791.3
480 704.63
485 104.682
490 28.7163
495 16.8914
500 12.2625
505 8.64211
510 7.32504
515 6.70727
520 6.60743
525 6.38233
530 5.71821
535 5.37726
540 5.5971
545 5.64014
550 4.90047
555 4.62038
560 4.25721
565 3.63872
570 3.00959
575 2.65713
580 2.47605
585 2.32289
590 2.16228
595 1.97608
600 2.94703
Ex : 478
200 1.13893
205 1.16666
210 1.20383
215 1.16941
220 1.07793
225 1.29525
230 1.34974
235 1.7343
240 1.36429
245 1.32388
250 1.17592
255 1.23447
260 1.18985
265 1.31669
270 1.34225
275 1.17639
280 1.28161
285 1.34855
290 1.34089
295 1.39471
300 1.44062
305 1.5424
310 1.58077
315 1.63679
320 1.71547
325 1.68897
330 1.92971
335 1.90908
340 1.98416
345 1.9802
350 2.16282
355 2.22946
360 2.38247
365 2.48546
370 2.53163
375 2.6051
380 3.10561
385 3.04195
390 3.54889
395 3.68809
400 3.92045
405 4.27261
410 4.57732
415 4.8363
420 5.5343
425 6.12403
430 6.911
435 7.81818
440 9.38691
445 12.8625
450 17.748
455 25.6417
460 45.6258
465 2003.26
470 9999.9
475 9999.9
480 6024.62
485 733.139
490 109.632
495 30.3273
500 17.2876
505 12.8344
510 9.2695
515 7.85427
520 7.0991
525 6.80787
530 6.37404
535 5.79138
540 5.52591
545 5.51907
550 5.29713
555 4.95916
560 4.37865
565 4.31694
570 3.66566
575 2.95514
580 2.62147
585 2.43323
590 2.24483
595 2.17417
600 2.11178
Ex : 483
200 1.22249
205 1.19577
210 1.08994
215 1.17843
220 1.07285
225 1.13639
230 1.25856
235 1.67453
240 1.38596
245 1.22108
250 1.27866
255 1.2651
260 1.19264
265 1.36832
270 1.41578
275 1.43312
280 1.34782
285 1.3318
290 1.44283
295 1.35104
300 1.47286
305 1.55843
310 1.45067
315 1.61282
320 1.74173
325 1.7518
330 1.78159
335 1.93682
340 1.83572
345 1.97331
350 2.0926
355 2.20938
360 2.36831
365 2.30933
370 2.48294
375 2.66181
380 2.73081
385 3.04978
390 3.29378
395 3.40669
400 3.63992
405 3.93827
410 4.27729
415 4.5211
420 5.08913
425 5.50418
430 6.01618
435 7.0624
440 8.09374
445 10.0302
450 13.0836
455 18.0213
460 27.5453
465 47.7962
470 1598.99
475 9999.9
480 9999.9
485 6594.15
490 800.31
495 118.064
500 31.6002
505 18.1624
510 13.2924
515 9.53256
520 7.90322
525 7.24815
530 7.17317
535 6.74944
540 6.0571
545 5.66551
550 5.16576
555 5.33017
560 4.90708
565 4.38001
570 3.91768
575 3.55065
580 3.18168
585 2.66102
590 2.56202
595 2.28902
600 1.67614
Ex : 488
200 1.22196
205 1.1184
210 1.1045
215 1.23703
220 1.12638
225 1.1979
230 1.15029
235 1.47726
240 1.79789
245 1.3149
250 1.22951
255 1.15005
260 1.16947
265 1.30182
270 1.32817
275 1.37876
280 1.37777
285 1.35306
290 1.35192
295 1.49161
300 1.47903
305 1.55615
310 1.60032
315 1.54517
320 1.66993
325 1.67337
330 1.82091
335 2.05602
340 2.14885
345 2.16404
350 2.0754
355 2.21085
360 2.43129
365 2.41485
370 2.42873
375 2.76109
380 2.72101
385 3.06578
390 3.34151
395 3.68817
400 3.82857
405 3.9397
410 4.37238
415 4.56416
420 4.80859
425 5.52273
430 5.95242
435 6.4841
440 7.29911
445 8.71278
450 11.0911
455 14.3739
460 20.1159
465 30.5401
470 48.1566
475 1939.57
480 9999.9
485 9999.9
490 6468.28
495 786.505
500 117.086
505 31.672
510 18.4318
515 13.1557
520 10.1761
525 8.42385
530 7.54822
535 7.21111
540 6.7849
545 6.37183
550 5.84477
555 5.38342
560 5.10362
565 4.99019
570 4.30294
575 3.94985
580 3.51817
585 3.15496
590 2.55404
595 2.34405
600 2.52226
Ex : 493
200 1.33074
205 1.19368
210 1.2094
215 1.21878
220 1.21026
225 1.29344
230 1.21786
235 1.28265
240 1.94418
245 1.51045
250 1.31443
255 1.36334
260 1.36286
265 1.24372
270 1.31939
275 1.36891
280 1.52403
285 1.40226
290 1.39575
295 1.4128
300 1.47736
305 1.48878
310 1.48845
315 1.70536
320 1.84847
325 1.7875
330 1.98023
335 1.93627
340 1.85461
345 1.97488
350 2.31132
355 2.17133
360 2.16959
365 2.32787
370 2.42019
375 2.38007
380 2.92284
385 2.90992
390 3.18931
395 3.49534
400 3.51662
405 3.74333
410 3.98755
415 4.41761
420 4.46483
425 5.14875
430 5.39708
435 5.6066
440 6.4429
445 7.57813
450 8.94665
455 11.2767
460 15.1271
465 21.3081
470 28.8249
475 44.9711
480 1833.65
485 9999.9
490 9999.9
495 6371.19
500 772.892
505 114.117
510 31.0781
515 18.3352
520 13.2947
525 9.75063
530 8.3136
535 7.3235
540 6.97682
545 6.58351
550 6.2072
555 5.44054
560 4.94035
565 4.98739
570 4.85642
575 4.142
580 3.56225
585 3.38447
590 3.07063
595 2.69078
600 3.42798
Ex : 498
200 1.13659
205 1.13766
210 1.24057
215 1.33637
220 1.19012
225 1.20023
230 1.21501
235 1.30904
240 1.42741
245 1.94429
250 1.45499
255 1.35328
260 1.33917
265 1.45461
270 1.37542
275 1.35146
280 1.43967
285 1.34535
290 1.49044
295 1.48546
300 1.47866
305 1.6659
310 1.50561
315 1.58242
320 1.69005
325 1.6896
330 1.74872
335 2.04921
340 1.99172
345 2.19843
350 2.26368
355 2.27224
360 2.28673
365 2.48765
370 2.56543
375 2.63821
380 2.76868
385 2.89879
390 3.02562
395 3.2744
400 3.85398
405 3.69706
410 4.1933
415 4.39937
420 4.66279
425 4.91695
430 5.12577
435 5.80139
440 6.19543
445 7.20476
450 8.18491
455 9.77278
460 12.0275
465 16.7943
470 21.4939
475 29.1524
480 47.5725
485 2179.82
490 9999.9
495 9999.9
500 6289.37
505 763.478
510 114.327
515 32.2732
520 18.425
525 13.742
530 9.65268
535 8.16437
540 7.5236
545 7.33515
550 6.51056
555 6.3981
560 5.5579
565 4.98497
570 4.60948
575 4.54835
580 3.93421
585 3.42813
590 3.40963
595 2.99934
600 2.48297
Ex : 503
200 1.34375
205 1.28187
210 1.27456
215 1.1413
220 1.16752
225 1.32188
230 1.37305
235 1.30424
240 1.2978
245 1.98271
250 1.75138
255 1.39475
260 1.33519
265 1.33522
270 1.41518
275 1.3954
280 1.30885
285 1.53582
290 1.44013
295 1.46511
300 1.69206
305 1.52168
310 1.49468
315 1.5648
320 1.54427
325 1.72616
330 1.82376
335 1.87773
340 2.03731
345 2.07001
350 2.30212
355 2.29803
360 2.41673
365 2.4131
370 2.4109
375 2.66048
380 2.85403
385 2.75347
390 3.29216
395 3.36127
400 3.81467
405 4.07476
410 4.27423
415 4.25437
420 4.46381
425 4.69349
430 5.14297
435 5.3164
440 5.81658
445 6.66552
450 7.53241
455 8.6047
460 10.5397
465 13.4889
470 16.8399
475 21.4638
480 30.7336
485 49.0087
490 2051.62
495 9999.9
500 9999.9
505 6567.31
510 798.445
515 119.22
520 33.1472
525 19.0543
530 13.8205
535 9.86774
540 8.30094
545 7.50052
550 7.34164
555 6.88152
560 6.45193
565 5.50266
570 4.90472
575 4.5099
580 4.09347
585 3.90161
590 3.39213
595 3.25705
600 4.10999
Ex : 508
200 1.13964
205 1.17847
210 1.1532
215 1.33485
220 1.22269
225 1.28613
230 1.20443
235 1.16886
240 1.17328
245 1.8904
250 2.4929
255 1.48092
260 1.4797
265 1.38377
270 1.38161
275 1.36637
280 1.51208
285 1.49829
290 1.60171
295 1.57398
300 1.56295
305 1.57853
310 1.56725
315 1.61421
320 1.59204
325 1.66982
330 1.93007
335 1.84408
340 2.04294
345 2.11565
350 2.21923
355 2.25079
360 2.55048
365 2.59717
370 2.45528
375 2.38652
380 2.84302
385 2.96962
390 3.06649
395 3.22045
400 3.52675
405 3.79011
410 3.85524
415 4.03597
420 4.43902
425 4.69598
430 4.85335
435 5.33125
440 5.5865
445 6.288
450 6.9721
455 7.93174
460 9.02917
465 11.1431
470 13.429
475 16.4131
480 22.3179
485 31.251
490 51.6716
495 2276.32
500 9999.9
505 9999.9
510 7096.21
515 859.295
520 127.217
525 33.4768
530 19.5223
535 13.7098
540 9.87515
545 8.52578
550 7.75181
555 7.12947
560 6.96333
565 6.29211
570 5.82342
575 5.21904
580 4.41988
585 4.08138
590 3.66672
595 3.43606
600 4.32212
Ex : 513
200 1.20414
205 1.12311
210 1.31346
215 1.19126
220 1.21326
225 1.31763
230 1.19086
235 1.33192
240 1.34259
245 1.33074
250 4.53316
255 3.66744
260 1.61391
265 1.40452
270 1.32882
275 1.4233
280 1.50366
285 1.45842
290 1.4547
295 1.41792
300 1.50183
305 1.55883
310 1.57711
315 1.66793
320 1.77217
325 1.61534
330 1.89637
335 2.03414
340 1.83394
345 2.24645
350 2.14228
355 2.22053
360 2.2811
365 2.44477
370 2.38564
375 2.44077
380 2.75761
385 2.93434
390 2.87713
395 3.23929
400 3.25507
405 3.71376
410 3.87499
415 4.07423
420 4.169
425 4.48693
430 4.54813
435 4.97805
440 5.44074
445 5.86503
450 6.54521
455 7.31506
460 8.36864
465 10.0297
470 11.6014
475 13.2393
480 16.862
485 22.1742
490 32.2523
495 50.6319
500 2111.46
505 9999.9
510 9999.9
515 7481.45
520 906.8
525 132.734
530 34.7405
535 19.5124
540 14.0626
545 10.1015
550 8.41692
555 7.74561
560 7.312
565 6.82925
570 6.2998
575 5.32911
580 4.87547
585 4.14273
590 3.87377
595 3.72717
600 4.4219
Ex : 518
200 1.2021
205 1.32893
210 1.23189
215 1.32712
220 1.19379
225 1.07227
230 1.10221
235 1.27952
240 1.21984
245 1.333
250 3.90034
255 10.7324
260 3.42228
265 1.77298
270 1.38288
275 1.43153
280 1.48496
285 1.53424
290 1.54341
295 1.37037
300 1.4561
305 1.57896
310 1.63712
315 1.64092
320 1.80856
325 1.54708
330 1.73976
335 1.96649
340 1.93202
345 2.10154
350 2.00786
355 2.09143
360 2.3611
365 2.28478
370 2.38803
375 2.55603
380 2.48492
385 2.61337
390 3.02399
395 3.04
400 3.30248
405 3.36616
410 3.50804
415 3.80745
420 4.3689
425 4.29853
430 4.51955
435 4.67824
440 5.21096
445 5.64282
450 5.98695
455 7.03021
460 7.93106
465 8.80215
470 9.89696
475 10.838
480 13.6035
485 16.9401
490 22.7176
495 31.4825
500 49.4266
505 2069.78
510 9999.9
515 9999.9
520 7621.52
525 922.957
530 134.271
535 34.2581
540 19.4731
545 14.546
550 10.1569
555 8.45421
560 7.60223
565 7.52485
570 6.90907
575 6.06956
580 5.21233
585 5.00091
590 4.3114
595 3.79577
600 2.583
Ex : 523
200 1.3574
205 1.04885
210 1.13063
215 1.17106
220 1.32799
225 1.11548
230 1.30418
235 1.46645
240 1.27865
245 1.28708
250 1.8909
255 17.3158
260 13.7228
265 2.85825
270 1.69573
275 1.49632
280 1.58655
285 1.5096
290 1.29279
295 1.48584
300 1.52125
305 1.55018
310 1.62279
315 1.71739
320 1.77564
325 1.89256
330 1.69696
335 1.96752
340 1.79991
345 1.91888
350 1.91554
355 2.15855
360 2.22058
365 2.36425
370 2.40043
375 2.58623
380 2.76096
385 2.76546
390 2.61701
395 2.8477
400 3.28212
405 3.14572
410 3.37227
415 3.91784
420 3.78606
425 4.176
430 4.28875
435 4.34375
440 4.99713
445 5.21777
450 5.63789
455 5.90882
460 6.9631
465 8.04833
470 8.79759
475 9.26793
480 10.6286
485 13.0094
490 16.5379
495 21.5212
500 30.6496
505 49.0354
510 1900.1
515 9999.9
520 9999.9
525 8003.44
530 965.171
535 139.169
540 35.2735
545 19.596
550 14.2535
555 9.84042
560 8.33409
565 7.73167
570 7.47799
575 6.65842
580 6.09768
585 5.29662
590 4.563
595 4.23213
600 3.02681
Ex : 528
200 1.17123
205 1.2165
210 1.28472
215 1.15669
220 1.17393
225 1.06638
230 1.33453
235 1.44951
240 1.34273
245 1.22186
250 1.43475
255 11.4759
260 36.0863
265 9.0871
270 2.34195
275 1.68767
280 1.43772
285 1.60555
290 1.44832
295 1.57851
300 1.60217
305 1.68898
310 1.58869
315 1.68746
320 1.67095
325 1.94986
330 1.79456
335 1.97357
340 1.8551
345 1.86499
350 1.79787
355 2.00871
360 2.28157
365 2.37161
370 2.26558
375 2.35279
380 2.71415
385 2.67653
390 2.61196
395 2.83117
400 2.96879
405 3.25437
410 3.31775
415 3.48163
420 3.48232
425 3.93115
430 4.22641
435 4.28907
440 4.69713
445 4.86499
450 5.33096
455 5.79761
460 6.63201
465 7.28754
470 7.89366
475 8.30925
480 9.95035
485 10.4768
490 13.0362
495 16.437
500 21.1491
505 29.4816
510 47.3583
515 1760.28
520 9999.9
525 9999.9
530 7636.27
535 923.568
540 133.626
545 34.4694
550 19.0344
555 13.7735
560 9.67116
565 7.58547
570 7.38355
575 6.9265
580 6.32227
585 5.63114
590 4.77391
595 4.45082
600 7.26379
Ex : 533
200 1.02056
205 1.24375
210 1.33013
215 1.27935
220 1.29714
225 1.24172
230 1.25842
235 1.13859
240 1.12815
245 1.40066
250 1.36856
255 3.0181
260 40.7004
265 30.6151
270 5.1118
275 1.82409
280 1.52729
285 1.43161
290 1.46007
295 1.66873
300 1.65869
305 1.54389
310 1.51866
315 1.71519
320 1.87009
325 1.5836
330 1.8385
335 1.98826
340 1.93224
345 1.9076
350 1.8471
355 1.95267
360 2.03393
365 2.27512
370 2.10121
375 2.51673
380 2.46211
385 2.51335
390 2.66114
395 2.44081
400 2.84315
405 3.1778
410 3.23262
415 3.40821
420 3.47524
425 3.68679
430 3.95979
435 4.25321
440 4.39484
445 4.91345
450 5.21883
455 5.68223
460 6.1234
465 6.79866
470 7.06397
475 7.8404
480 8.27724
485 9.63114
490 10.8584
495 12.953
500 16.3893
505 21.2176
510 29.3185
515 45.9598
520 1793.44
525 9999.9
530 9999.9
535 7998.45
540 964.914
545 138.211
550 34.4566
555 19.0955
560 13.2382
565 9.44243
570 7.86766
575 6.47925
580 6.62346
585 6.07355
590 5.31971
595 5.11661
600 4.36917
Ex : 538
200 1.26877
205 1.22651
210 1.29278
215 1.21874
220 1.24956
225 1.21988
230 1.2202
235 1.34584
240 1.19993
245 1.17388
250 1.35024
255 1.4176
260 18.8296
265 64.4249
270 16.2793
275 3.1169
280 1.62984
285 1.54562
290 1.53933
295 1.63045
300 1.5726
305 1.75989
310 1.66588
315 1.6056
320 1.86452
325 1.68503
330 1.92486
335 1.69549
340 1.99034
345 1.81894
350 1.95993
355 2.01364
360 1.92757
365 1.95523
370 2.16765
375 2.18746
380 2.19456
385 2.31329
390 2.7419
395 2.89499
400 2.81623
405 2.79019
410 3.20343
415 3.2721
420 3.55981
425 3.64551
430 3.58783
435 4.23526
440 4.13788
445 4.63825
450 5.0069
455 5.05593
460 5.73171
465 6.26842
470 6.67078
475 6.93801
480 7.70367
485 8.29734
490 9.4578
495 10.5069
500 12.6263
505 15.8365
510 20.6866
515 28.5653
520 44.8838
525 1536.72
530 9999.9
535 9999.9
540 8514.35
545 1029.64
550 145.878
555 35.6298
560 18.4755
565 13.0017
570 8.98247
575 7.11605
580 6.38366
585 6.40656
590 6.43341
595 5.78926
600 4.30156
Ex : 543
200 1.32172
205 1.35609
210 1.14286
215 1.0749
220 1.13679
225 1.23709
230 1.20998
235 1.27282
240 1.24829
245 1.20529
250 1.49026
255 1.28448
260 3.37735
265 61.4665
270 49.5577
275 7.52818
280 2.20443
285 1.63965
290 1.74531
295 1.70664
300 1.66952
305 1.64514
310 1.66302
315 1.65673
320 1.76496
325 1.83968
330 1.8257
335 1.73475
340 1.72434
345 1.96028
350 2.01746
355 1.96804
360 2.10404
365 2.1154
370 2.08433
375 2.30839
380 2.2928
385 2.38011
390 2.62285
395 2.74795
400 2.72172
405 2.90043
410 2.88303
415 3.29762
420 3.43044
425 3.13131
430 3.23275
435 3.86356
440 4.32615
445 4.43696
450 4.97953
455 5.1643
460 5.49024
465 5.82299
470 6.07384
475 6.30908
480 7.12442
485 7.26764
490 8.26061
495 9.12666
500 9.8997
505 12.1041
510 15.2517
515 20.4302
520 29.665
525 45.0848
530 1463.36
535 9999.9
540 9999.9
545 8997.13
550 1090.57
555 151.782
560 35.2045
565 18.3642
570 12.6685
575 9.04918
580 6.97596
585 6.54978
590 6.00543
595 5.80675
600 5.12534
Ex : 548
200 1.36248
205 1.19067
210 1.27846
215 1.27937
220 1.0986
225 1.14634
230 1.26944
235 1.32091
240 1.1571
245 1.1371
250 1.22912
255 1.41896
260 1.54762
265 26.678
270 92.452
275 22.5517
280 4.23872
285 1.89074
290 1.79224
295 1.77771
300 1.82694
305 1.53786
310 2.07676
315 1.7262
320 1.75326
325 1.9321
330 2.01144
335 2.06853
340 2.04548
345 1.77426
350 2.08806
355 1.89997
360 2.13246
365 2.01424
370 2.11612
375 2.21641
380 2.32936
385 2.51275
390 2.52857
395 2.45094
400 2.65164
405 2.93736
410 2.78879
415 3.10587
420 3.18662
425 3.30107
430 3.69053
435 3.80487
440 4.02161
445 4.22196
450 4.54879
455 5.21168
460 5.46025
465 5.89434
470 6.2688
475 5.96817
480 6.4555
485 7.11542
490 7.84333
495 8.63279
500 9.1221
505 10.7272
510 12.3456
515 15.8256
520 20.7304
525 29.0786
530 44.9831
535 1666.94
540 9999.9
545 9999.9
550 8773.26
555 1058.18
560 147.781
565 34.4238
570 17.8456
575 12.2332
580 8.035
585 6.63992
590 5.92826
595 6.2896
600 5.99379
Ex : 553
200 1.13307
205 1.18706
210 1.24848
215 1.13882
220 1.37976
225 1.2183
230 1.12917
235 1.21789
240 1.31905
245 1.34792
250 1.33784
255 1.18856
260 1.32253
265 4.41837
270 83.5921
275 70.1961
280 10.0748
285 2.36428
290 1.71727
295 1.65017
300 1.81298
305 1.53066
310 1.57677
315 1.95441
320 1.84863
325 1.97062
330 1.96768
335 2.14341
340 1.98572
345 1.95841
350 2.04372
355 2.11049
360 2.11199
365 2.20454
370 2.10307
375 2.19527
380 2.25013
385 2.42931
390 2.52708
395 2.57593
400 2.76605
405 2.77002
410 2.69396
415 2.99371
420 3.05309
425 3.26212
430 3.41083
435 3.86493
440 4.04804
445 3.9602
450 4.52314
455 4.86237
460 5.17248
465 6.16385
470 5.6895
475 5.78696
480 6.27664
485 6.37216
490 7.35186
495 7.23464
500 8.11812
505 9.27259
510 10.2878
515 12.5976
520 15.5754
525 20.368
530 28.439
535 43.7986
540 1425.4
545 9999.9
550 9999.9
555 9188.34
560 1112.71
565 154.027
570 34.9566
575 17.4513
580 11.6676
585 8.26151
590 6.43153
595 5.82228
600 4.12128
Ex : 558
200 1.24113
205 1.46696
210 1.35107
215 1.19524
220 1.32518
225 1.26271
230 1.31159
235 1.34582
240 1.40601
245 1.36873
250 1.38026
255 1.29435
260 1.44999
265 1.47437
270 33.0336
275 127.86
280 31.7453
285 5.02185
290 2.08977
295 1.79616
300 1.77373
305 1.92763
310 1.82701
315 1.8924
320 1.75458
325 1.96891
330 2.0752
335 2.02554
340 2.11067
345 2.20314
350 2.17651
355 2.03963
360 2.08817
365 2.10263
370 2.16863
375 2.34502
380 2.30304
385 2.54654
390 2.43999
395 2.46219
400 2.56379
405 2.94695
410 2.97155
415 3.06562
420 2.89027
425 3.01176
430 3.62614
435 3.76244
440 3.65708
445 4.0578
450 4.21478
455 4.56716
460 4.93545
465 5.64885
470 5.93714
475 5.53763
480 6.0584
485 6.51391
490 6.60257
495 6.86114
500 7.36666
505 8.14171
510 8.97573
515 10.6101
520 12.2062
525 15.6832
530 19.6427
535 27.6538
540 43.6577
545 1348.5
550 9999.9
555 9999.9
560 9235.1
565 1118.62
570 153.593
575 33.989
580 16.1811
585 11.4194
590 7.72302
595 6.27322
600 4.76733
Ex : 563
200 1.24753
205 1.42939
210 1.43323
215 1.43435
220 1.34669
225 1.26547
230 1.24567
235 1.438
240 1.3294
245 1.25154
250 1.59277
255 1.35285
260 1.30409
265 1.42224
270 5.4015
275 109.237
280 91.3524
285 12.9181
290 3.09609
295 1.81469
300 1.81033
305 1.92613
310 1.89399
315 1.83437
320 2.07973
325 1.86172
330 1.89376
335 1.96235
340 2.08489
345 1.95177
350 1.96994
355 1.96045
360 2.05853
365 2.10681
370 2.2849
375 2.24751
380 2.35313
385 2.47727
390 2.24173
395 2.52917
400 2.50482
405 2.41271
410 2.65942
415 2.96828
420 2.98198
425 3.02645
430 2.97883
435 3.4728
440 3.50784
445 3.99298
450 3.9226
455 4.56531
460 4.89778
465 5.22241
470 5.46841
475 5.59931
480 5.71045
485 5.7501
490 6.57207
495 6.56216
500 7.32355
505 7.51805
510 8.27883
515 8.6336
520 9.86825
525 12.1376
530 14.8327
535 19.7524
540 28.0128
545 43.1996
550 1346.98
555 9999.9
560 9999.9
565 9240.34
570 1115.79
575 151.002
580 32.2357
585 15.5695
590 10.3623
595 7.11194
600 6.68709
Ex : 568
200 1.31031
205 1.27559
210 1.46334
215 1.19732
220 1.32227
225 1.42341
230 1.24183
235 1.4152
240 1.44641
245 1.33087
250 1.30294
255 1.29885
260 1.45334
265 1.42394
270 1.69412
275 38.737
280 155.13
285 41.924
290 6.32541
295 2.3566
300 1.86084
305 1.94247
310 1.94651
315 1.84547
320 1.75632
325 1.98183
330 2.08905
335 1.98473
340 1.77072
345 2.00692
350 2.04929
355 1.84306
360 2.25648
365 2.14748
370 2.32397
375 2.2646
380 2.22528
385 2.35536
390 2.44299
395 2.52259
400 2.49509
405 2.85955
410 2.97198
415 2.82961
420 2.90585
425 3.10825
430 3.20021
435 3.31336
440 3.53627
445 4.05075
450 4.03032
455 4.4425
460 4.9755
465 5.35228
470 5.33218
475 5.1387
480 5.28408
485 5.79714
490 5.96392
495 6.07929
500 6.47896
505 7.12981
510 7.20181
515 7.64533
520 8.50319
525 9.66673
530 12.2018
535 15.0324
540 19.6071
545 26.9991
550 41.8144
555 1031.26
560 9999.9
565 9999.9
570 9436.86
575 1147.22
580 152.935
585 30.9403
590 13.9685
595 9.84417
600 6.92793
Ex : 573
200 1.25158
205 1.30498
210 1.41829
215 1.136
220 1.28342
225 1.12729
230 1.46674
235 1.31777
240 1.24426
245 1.36343
250 1.25261
255 1.25644
260 1.50735
265 1.40636
270 1.54405
275 4.87459
280 125.424
285 120.059
290 16.9302
295 3.37756
300 1.87241
305 1.88165
310 1.73802
315 1.99855
320 1.81091
325 2.0072
330 1.81177
335 1.93459
340 1.98784
345 1.93614
350 2.03048
355 1.99161
360 2.12021
365 1.98486
370 2.16146
375 2.18366
380 2.49595
385 2.24437
390 2.38634
395 2.48734
400 2.47541
405 2.39242
410 2.61439
415 2.72275
420 2.55284
425 3.02821
430 3.18575
435 3.19448
440 2.99136
445 3.49092
450 4.0444
455 4.27048
460 4.3879
465 5.0019
470 5.12559
475 5.00249
480 5.36747
485 5.48382
490 5.45651
495 5.69991
500 6.13234
505 6.06299
510 6.71038
515 6.89086
520 7.54414
525 8.62788
530 9.28324
535 11.3607
540 14.199
545 18.0795
550 26.1911
555 39.6962
560 886.571
565 9999.9
570 9999.9
575 9664.1
580 1168.49
585 153.754
590 30.7022
595 14.0775
600 12.8596
Ex : 578
200 1.40932
205 1.38114
210 1.05449
215 1.38535
220 1.34212
225 1.30474
230 1.3
235 1.18723
240 1.19358
245 1.17285
250 1.34086
255 1.43255
260 1.2174
265 1.2572
270 1.48958
275 1.55813
280 44.1486
285 185.818
290 50.8311
295 7.44541
300 2.19464
305 1.53865
310 1.75648
315 1.93126
320 1.93411
325 1.82062
330 1.8582
335 1.71161
340 1.80582
345 1.84595
350 1.74838
355 1.91433
360 2.02537
365 1.92516
370 1.83974
375 2.08596
380 2.10735
385 2.18594
390 2.241
395 2.1253
400 2.23153
405 2.44568
410 2.48148
415 2.41153
420 2.49486
425 2.7122
430 2.80323
435 3.13101
440 3.24623
445 3.10896
450 3.83652
455 3.76416
460 3.89341
465 3.95223
470 4.17295
475 4.33719
480 4.76399
485 4.79505
490 5.04329
495 5.0347
500 5.24594
505 5.56257
510 5.69969
515 6.11613
520 6.54859
525 6.85388
530 7.69015
535 9.00131
540 10.7434
545 13.3851
550 17.5962
555 23.8979
560 36.9492
565 746.306
570 9999.9
575 9999.9
580 8010.39
585 965.832
590 127.837
595 25.9461
600 13.333
Ex : 583
200 1.06342
205 1.06753
210 1.4219
215 1.07118
220 1.17768
225 1.04438
230 1.01594
235 1.12778
240 1.05661
245 1.08572
250 1.25637
255 1.32007
260 1.30366
265 1.27365
270 1.26341
275 1.47396
280 5.54892
285 146.166
290 140.521
295 19.5775
300 3.73377
305 1.85858
310 1.55987
315 1.89679
320 1.9992
325 1.66108
330 1.61235
335 1.68798
340 1.65079
345 1.6213
350 2.1159
355 1.71616
360 1.84238
365 1.88571
370 1.75781
375 2.20244
380 2.08925
385 2.14943
390 2.08873
395 2.02134
400 2.03364
405 2.2405
410 2.37444
415 2.0724
420 2.42442
425 2.64605
430 2.53839
435 2.51624
440 2.74852
445 2.87664
450 3.11486
455 3.50048
460 3.98531
465 4.01795
470 4.25286
475 4.19741
480 4.36964
485 4.24114
490 4.77871
495 4.75816
500 5.08061
505 4.84465
510 5.23561
515 5.47609
520 5.56171
525 6.6778
530 6.82526
535 7.48451
540 8.46325
545 10.1024
550 12.9239
555 17.1839
560 22.0863
565 33.6532
570 659.372
575 9999.9
580 9999.9
585 6542.35
590 791.858
595 105.019
600 27.7271
Ex : 588
200 1.08209
205 1.11806
210 1.05935
215 1.0686
220 1.10066
225 1.02512
230 1.19747
235 1.30855
240 1.29743
245 1.0122
250 1.12871
255 1.21088
260 1.00081
265 1.12305
270 1.18275
275 1.27986
280 1.56751
285 46.8698
290 214.954
295 62.0841
300 8.71641
305 2.38864
310 1.72491
315 1.61504
320 1.82832
325 1.54458
330 1.67046
335 1.68148
340 1.67975
345 1.62005
350 1.6655
355 1.58925
360 1.65191
365 1.82253
370 2.00079
375 1.70975
380 1.92575
385 2.00009
390 1.83176
395 2.20248
400 1.99788
405 2.17066
410 2.23451
415 2.19826
420 2.0509
425 2.15487
430 2.38934
435 2.79735
440 2.73603
445 2.91451
450 2.96085
455 2.84519
460 3.40054
465 4.03044
470 4.00009
475 4.01706
480 4.09221
485 4.15512
490 4.59899
495 4.21502
500 4.35118
505 4.53961
510 4.69224
515 4.94142
520 5.19414
525 5.19796
530 5.55309
535 6.56304
540 6.87545
545 8.05329
550 10.0727
555 11.8046
560 15.8582
565 20.2017
570 29.3423
575 578.548
580 9999.9
585 9999.9
590 6034.77
595 727.995
600 99.7885
Ex : 593
200 1.10538
205 1.16362
210 1.23596
215 1.09037
220 1.14498
225 1.06859
230 0.941748
235 1.01286
240 1.10986
245 1.16673
250 1.00353
255 1.00553
260 1.32972
265 1.14943
270 0.970026
275 1.18938
280 1.21971
285 5.00277
290 160.24
295 161.345
300 22.845
305 4.23896
310 1.68489
315 1.48651
320 1.55176
325 1.71042
330 1.67927
335 1.56901
340 1.92093
345 1.73126
350 1.60588
355 1.75257
360 1.75406
365 1.7001
370 1.7254
375 1.56816
380 1.8752
385 1.76681
390 1.82813
395 1.94678
400 2.25859
405 2.02655
410 1.91253
415 2.44161
420 2.23917
425 2.26873
430 2.26478
435 2.28947
440 2.44264
445 2.56081
450 2.85655
455 2.91589
460 3.17352
465 3.68663
470 3.86144
475 3.78321
480 3.68202
485 3.82353
490 3.87704
495 4.13467
500 3.94031
505 4.04761
510 4.1563
515 4.44478
520 4.89925
525 5.19093
530 5.34458
535 5.84667
540 6.28478
545 6.58982
550 7.73958
555 10.1269
560 11.6917
565 15.1609
570 19.2925
575 27.0567
580 519.136
585 9999.9
590 9999.9
595 5315.81
600 803.535
Ex : 598
200 1.14452
205 0.986968
210 1.06933
215 1.16365
220 0.988491
225 1.0027
230 0.9626
235 0.968605
240 1.1231
245 0.825422
250 1.09464
255 1.07791
260 1.33048
265 1.01816
270 1.05992
275 1.1527
280 1.34216
285 1.26836
290 52.9014
295 242.633
300 73.0751
305 9.56499
310 2.21296
315 1.4909
320 1.63345
325 1.70089
330 1.76905
335 1.56251
340 1.66374
345 1.38633
350 1.70128
355 1.58558
360 1.69769
365 1.57379
370 1.5653
375 1.46008
380 1.70946
385 1.80087
390 1.58626
395 2.08998
400 1.69889
405 1.8424
410 1.92571
415 1.75831
420 2.04318
425 2.27059
430 1.86527
435 2.10276
440 2.19276
445 2.37968
450 2.52867
455 2.77385
460 3.29514
465 3.42049
470 3.6218
475 3.704
480 3.66886
485 3.87978
490 3.96767
495 3.91479
500 3.90419
505 3.9886
510 4.00087
515 4.2224
520 4.30885
525 4.58617
530 4.97043
535 5.23504
540 5.92501
545 6.18532
550 6.68004
555 7.29854
560 8.78039
565 11.0185
570 12.9864
575 17.4276
580 24.3901
585 495.341
590 9999.9
595 9999.9
600 9999.9
Ex : 603
200 1.02128
205 1.02982
210 0.89898
215 1.11953
220 1.08187
225 1.1396
230 0.883737
235 1.01911
240 1.05015
245 1.04021
250 1.04324
255 0.87043
260 1.14122
265 1.03553
270 1.12104
275 1.19854
280 1.19862
285 1.30387
290 5.32634
295 181.97
300 201.066
305 28.4441
310 4.71658
315 1.82566
320 1.29907
325 1.68617
330 1.77652
335 1.75302
340 1.54711
345 1.37618
350 1.80761
355 1.9203
360 1.55997
365 1.53675
370 1.58019
375 1.71136
380 1.63378
385 1.75946
390 2.15231
395 2.12913
400 2.12669
405 2.27202
410 2.058
415 1.94193
420 2.11686
425 2.15124
430 2.11473
435 2.32215
440 2.03666
445 2.15013
450 2.40045
455 2.89086
460 2.91028
465 3.18906
470 3.03898
475 3.15523
480 3.47786
485 3.2126
490 3.4267
495 3.42682
500 3.48791
505 3.72702
510 3.92086
515 3.84827
520 4.18895
525 4.27403
530 4.50347
535 4.61301
540 4.37346
545 5.02949
550 5.93873
555 6.14375
560 6.77641
565 8.04009
570 10.1998
575 12.6435
580 15.3545
585 21.8596
590 435.806
595 9891.2
600 9999.9
