File format V 1.0
jeu. 12. mai 18:05:44 2016
Operator : 
Comments : 

=============================================
SpectroFluorometer parameters
Mode : 3D measurement
Data : Fluorescence
Phospho. : Ordinary
Spectrum : Fluorescence

Scan speed : 2400 nm/mn
Response : 100 ms
PM Voltage : 700 V
Shutter : On

Lambda Ex. Start : 203
Lambda Ex. End : 603
Lambda Ex. Step : 5
Ex. Slit : 5 nm

Lambda Em. Start : 200
Lambda Em. End : 600
Lambda Em. Step : 5
Em. Slit : 5 nm

Repetition : 1
Decal lambda em : 10
=============================================
DATA
Ex : 203
200 12.1878
205 16.0944
210 10.6033
215 11.8211
220 8.40479
225 17.614
230 11.4917
235 13.6572
240 15.2134
245 11.5751
250 8.68075
255 16.7437
260 14.9577
265 12.8683
270 17.124
275 20.8069
280 15.9662
285 22.7685
290 17.3235
295 14.1729
300 19.2921
305 21.505
310 24.7131
315 21.0178
320 24.7007
325 28.0074
330 20.761
335 25.4802
340 28.0036
345 28.9338
350 30.4569
355 32.9453
360 31.5626
365 32.1535
370 35.1218
375 30.6665
380 31.8595
385 28.0907
390 37.4648
395 36.6768
400 39.6708
405 36.6737
410 36.6657
415 36.2721
420 40.2341
425 33.044
430 36.3295
435 34.0198
440 36.1455
445 36.371
450 36.6557
455 39.4393
460 35.6423
465 35.1748
470 32.9908
475 32.798
480 35.048
485 33.8239
490 33.5623
495 32.7033
500 31.9425
505 29.3098
510 30.1365
515 33.5552
520 34.4158
525 29.7341
530 31.2555
535 30.8377
540 35.1391
545 32.3984
550 30.8281
555 32.238
560 34.9576
565 40.3268
570 36.7516
575 33.378
580 34.6718
585 33.3405
590 33.6061
595 25.0882
600 17.4773
Ex : 208
200 9.63842
205 14.1491
210 12.6299
215 12.7304
220 9.26429
225 10.6232
230 9.29873
235 12.9903
240 13.3279
245 11.5825
250 10.0243
255 13.9542
260 10.5148
265 12.5187
270 13.193
275 17.6886
280 15.8041
285 17.161
290 16.4177
295 18.2192
300 18.7845
305 20.4815
310 19.1474
315 23.624
320 24.6258
325 26.1684
330 29.2551
335 31.5072
340 29.7848
345 32.5385
350 25.9252
355 25.328
360 29.2837
365 34.8604
370 32.9127
375 31.7812
380 31.084
385 29.5499
390 37.6714
395 37.2432
400 35.6456
405 36.0915
410 37.6783
415 38.4198
420 36.6764
425 32.6509
430 32.7092
435 36.0928
440 37.9146
445 41.2579
450 38.1566
455 39.9199
460 43.971
465 47.8437
470 44.7187
475 33.7998
480 40.7496
485 34.6602
490 38.8729
495 36.4248
500 33.1962
505 30.2997
510 27.1878
515 32.4513
520 31.0557
525 34.7513
530 32.6215
535 34.3542
540 29.8009
545 39.6223
550 29.618
555 34.9498
560 38.4246
565 32.6123
570 32.834
575 34.0325
580 27.4027
585 26.7031
590 26.9902
595 29.1803
600 29.0205
Ex : 213
200 13.1977
205 10.5592
210 8.91873
215 9.68452
220 12.8672
225 11.1972
230 9.3702
235 8.47281
240 12.9528
245 11.0421
250 9.14087
255 12.8133
260 15.955
265 13.4127
270 16.4105
275 14.4408
280 14.5393
285 22.2574
290 17.8657
295 17.4757
300 23.8816
305 16.8868
310 24.3837
315 21.8003
320 27.665
325 28.0922
330 27.915
335 30.3787
340 31.4535
345 34.6515
350 30.7189
355 28.7834
360 25.7603
365 36.8117
370 32.7216
375 37.5681
380 32.1806
385 29.6672
390 28.8911
395 39.9621
400 34.0535
405 30.2536
410 35.4179
415 36.5126
420 35.3755
425 33.988
430 33.7201
435 34.4573
440 36.0683
445 33.428
450 40.6641
455 35.2696
460 33.9288
465 44.1832
470 36.1638
475 35.3273
480 37.0746
485 31.2114
490 36.8591
495 35.3717
500 32.5823
505 28.0953
510 31.8345
515 26.5461
520 32.1347
525 23.7676
530 30.9051
535 40.351
540 33.6439
545 35.0249
550 35.7293
555 39.9423
560 34.1338
565 38.2362
570 43.6131
575 35.8549
580 37.4024
585 32.3241
590 30.8605
595 31.1794
600 73.7059
Ex : 218
200 8.22872
205 12.0954
210 14.9002
215 12.6499
220 13.1145
225 11.1701
230 10.7071
235 12.5845
240 9.77715
245 14.5258
250 12.2455
255 10.9189
260 18.6987
265 17.2302
270 16.3591
275 17.3652
280 20.8001
285 17.845
290 14.9861
295 24.668
300 18.267
305 21.3667
310 22.5237
315 24.3777
320 25.8052
325 23.7715
330 22.6194
335 31.5548
340 26.6413
345 29.6332
350 25.8369
355 29.0517
360 31.35
365 30.9344
370 32.6682
375 38.632
380 31.4081
385 31.7038
390 32.7829
395 38.2544
400 37.2178
405 34.6668
410 36.572
415 38.1821
420 40.1602
425 31.8722
430 36.6323
435 33.2318
440 36.3151
445 35.3788
450 34.128
455 40.5817
460 37.1907
465 45.1419
470 36.9212
475 35.0934
480 34.4798
485 34.6576
490 42.9008
495 38.1029
500 31.7854
505 26.7411
510 35.793
515 39.3208
520 33.5279
525 32.5294
530 32.0204
535 35.7303
540 35.656
545 36.6184
550 42.1032
555 37.0634
560 35.3033
565 35.688
570 40.1623
575 34.1976
580 33.2891
585 36.9849
590 36.976
595 31.0105
600 23.0254
Ex : 223
200 10.8913
205 7.18763
210 10.0712
215 10.6599
220 10.3197
225 8.79755
230 8.77952
235 13.5938
240 13.3148
245 15.4178
250 12.5149
255 10.8043
260 11.4397
265 13.88
270 12.5593
275 15.2608
280 16.4042
285 15.3324
290 19.8486
295 18.4264
300 21.9042
305 22.8433
310 25.2843
315 23.4669
320 22.3225
325 21.803
330 22.7971
335 25.7801
340 27.6361
345 28.7049
350 30.3272
355 26.0116
360 26.8368
365 30.8522
370 35.5152
375 32.8341
380 33.1547
385 33.5972
390 28.3159
395 32.3624
400 35.3482
405 39.0372
410 35.9002
415 34.9679
420 29.894
425 32.1644
430 30.6164
435 30.6963
440 34.6779
445 36.0062
450 30.2773
455 34.4384
460 37.5452
465 37.7959
470 43.8788
475 38.0372
480 42.8385
485 36.5328
490 32.6364
495 31.9388
500 28.145
505 25.6849
510 26.3498
515 27.623
520 34.8482
525 32.8568
530 38.0403
535 38.8234
540 37.7551
545 34.3137
550 36.4321
555 34.995
560 39.3019
565 47.194
570 33.8063
575 42.4456
580 41.15
585 31.1089
590 30.4493
595 30.6291
600 38.0474
Ex : 228
200 11.5024
205 11.9292
210 10.4141
215 7.93939
220 10.2771
225 14.9484
230 15.1705
235 10.9627
240 12.5918
245 11.801
250 8.23951
255 11.4381
260 14.458
265 11.153
270 13.8621
275 12.8579
280 21.149
285 20.298
290 20.4698
295 18.7656
300 20.6631
305 24.781
310 24.7269
315 23.681
320 26.5867
325 29.6814
330 25.135
335 29.3769
340 26.7363
345 29.2209
350 33.388
355 27.9663
360 24.6532
365 30.1738
370 29.7215
375 30.4177
380 27.9439
385 29.452
390 30.3046
395 34.7611
400 27.2526
405 33.9787
410 33.6254
415 32.3319
420 32.3812
425 31.1233
430 25.602
435 28.9087
440 31.187
445 42.1719
450 37.2875
455 61.9434
460 66.6784
465 45.8662
470 37.7023
475 36.2525
480 32.7764
485 33.8517
490 35.5036
495 30.0355
500 27.293
505 26.9881
510 34.8594
515 31.6015
520 30.0953
525 35.6065
530 31.6424
535 31.8716
540 34.242
545 36.5013
550 35.793
555 40.234
560 41.3512
565 43.4589
570 41.3741
575 40.5836
580 35.9378
585 32.6207
590 33.3471
595 31.1355
600 22.6851
Ex : 233
200 10.7087
205 8.24916
210 6.34221
215 9.00678
220 9.37165
225 13.5875
230 27.4018
235 17.2459
240 8.94186
245 9.54236
250 9.83564
255 9.81513
260 12.436
265 12.5028
270 13.7019
275 13.0878
280 15.5768
285 16.1415
290 16.8133
295 16.8107
300 20.3426
305 21.7074
310 19.9515
315 25.2435
320 26.8042
325 27.4307
330 27.5538
335 22.2555
340 26.6526
345 31.8806
350 29.7111
355 30.4456
360 29.5374
365 25.536
370 28.265
375 32.382
380 27.7842
385 30.5159
390 32.2606
395 30.5919
400 35.3926
405 30.8581
410 34.3474
415 35.7135
420 27.6577
425 33.3046
430 34.6029
435 29.0952
440 28.3166
445 26.5075
450 27.6086
455 53.1887
460 147.475
465 255.219
470 204.34
475 64.596
480 37.588
485 30.0749
490 31.0898
495 30.8361
500 27.7972
505 28.6708
510 30.1403
515 26.2276
520 30.2789
525 29.3343
530 33.3419
535 34.3934
540 36.2916
545 38.3758
550 39.3862
555 34.8002
560 36.9238
565 39.3228
570 39.1804
575 37.1633
580 38.936
585 29.1491
590 28.8192
595 26.9399
600 28.7656
Ex : 238
200 5.60956
205 10.3794
210 8.80869
215 8.42929
220 6.19651
225 11.3431
230 39.7111
235 82.0308
240 26.8262
245 9.71526
250 12.3908
255 9.17695
260 11.8002
265 13.8449
270 12.8245
275 15.5157
280 14.7364
285 14.4737
290 16.7565
295 19.1518
300 17.5449
305 19.2025
310 21.0409
315 17.2178
320 23.5933
325 22.8495
330 23.903
335 28.069
340 28.3406
345 25.2516
350 25.2931
355 27.9678
360 27.5498
365 24.9561
370 26.5845
375 25.4305
380 24.9774
385 29.2762
390 24.5709
395 30.053
400 27.8888
405 26.6821
410 29.8312
415 29.1684
420 26.923
425 24.7739
430 24.1246
435 29.1116
440 26.6437
445 27.6449
450 28.2178
455 28.2006
460 36.7283
465 156.371
470 456.161
475 551.66
480 348.642
485 86.4722
490 34.2691
495 25.356
500 25.2248
505 26.3549
510 28.8409
515 33.0098
520 32.4519
525 32.7029
530 28.7717
535 36.6639
540 36.3206
545 37.0958
550 38.2109
555 39.2701
560 36.9618
565 35.918
570 32.9138
575 31.3922
580 35.7386
585 29.3609
590 29.648
595 29.3443
600 32.2295
Ex : 243
200 7.51186
205 7.33702
210 8.25505
215 6.48767
220 6.04058
225 7.05716
230 15.438
235 74.1565
240 114.976
245 31.1965
250 10.8963
255 8.5969
260 10.514
265 11.9192
270 14.2602
275 14.4274
280 15.4075
285 16.3153
290 15.7415
295 17.2752
300 15.2974
305 13.9337
310 19.7915
315 20.1417
320 19.4948
325 19.1567
330 20.8815
335 23.126
340 27.2977
345 24.5606
350 25.5408
355 22.8108
360 23.4892
365 24.8558
370 23.0684
375 26.5411
380 25.7621
385 27.0492
390 27.6661
395 25.2918
400 24.408
405 26.0867
410 26.7072
415 22.4127
420 21.1459
425 24.5112
430 22.5655
435 21.8111
440 19.6144
445 23.5729
450 24.2458
455 23.7316
460 28.69
465 29.3854
470 53.9772
475 300.679
480 621.387
485 683.449
490 398.849
495 90.4243
500 32.2844
505 26.1223
510 29.2509
515 30.1627
520 37.1081
525 42.2934
530 35.8328
535 33.9679
540 37.0837
545 35.9004
550 38.1508
555 30.9553
560 38.8094
565 30.5033
570 34.0775
575 31.6719
580 32.4248
585 27.4066
590 32.2018
595 25.4704
600 67.8867
Ex : 248
200 5.09946
205 4.87277
210 5.83855
215 5.57837
220 6.38198
225 5.26682
230 5.14448
235 11.995
240 99.9085
245 152.045
250 40.2863
255 13.1354
260 11.8002
265 13.0488
270 13.7601
275 13.4472
280 12.732
285 14.263
290 13.2321
295 12.5247
300 17.1958
305 15.7505
310 17.464
315 19.0326
320 20.771
325 20.753
330 20.5239
335 22.0175
340 21.52
345 19.7488
350 21.8211
355 21.4025
360 23.6972
365 23.0219
370 20.6998
375 20.2834
380 20.9569
385 22.5524
390 25.5095
395 22.3396
400 25.3718
405 23.3708
410 23.7003
415 19.8326
420 20.872
425 24.405
430 21.2097
435 21.6442
440 22.6733
445 21.4319
450 21.5455
455 19.2585
460 24.6219
465 24.6025
470 22.6646
475 25.4557
480 80.5913
485 398.645
490 868.688
495 888.157
500 406.605
505 85.0228
510 35.0267
515 31.4031
520 26.8943
525 35.7747
530 41.17
535 40.1141
540 40.7171
545 38.6784
550 37.8076
555 34.1022
560 34.8458
565 31.8749
570 30.5531
575 26.6025
580 29.6669
585 25.5381
590 25.1669
595 22.2103
600 36.2032
Ex : 253
200 5.67234
205 4.76566
210 4.00327
215 5.05062
220 5.0346
225 7.86676
230 4.26588
235 3.76906
240 13.1143
245 121.3
250 237.683
255 90.4166
260 20.2822
265 14.1135
270 13.1975
275 15.101
280 13.1983
285 13.2954
290 13.0451
295 13.9538
300 13.8076
305 15.424
310 15.6531
315 16.0603
320 16.0404
325 15.1649
330 15.4845
335 15.7607
340 17.9791
345 18.6037
350 19.6452
355 20.0908
360 18.8418
365 18.7491
370 19.0318
375 19.0397
380 18.3431
385 20.0368
390 20.2295
395 17.6989
400 20.0002
405 19.0482
410 20.2624
415 20.4066
420 16.8139
425 14.7662
430 18.304
435 17.0463
440 14.9936
445 16.3913
450 18.5558
455 15.5713
460 18.4531
465 19.7057
470 18.9854
475 16.3025
480 18.5589
485 18.9957
490 84.5639
495 452.535
500 1218.38
505 1585.12
510 974.28
515 213.147
520 61.3514
525 39.9341
530 38.1493
535 35.4437
540 41.28
545 41.2691
550 41.419
555 38.7635
560 37.6467
565 31.1236
570 30.0199
575 27.3648
580 27.1819
585 24.3584
590 25.3008
595 20.4621
600 29.7203
Ex : 258
200 3.78013
205 5.01352
210 4.20917
215 3.59323
220 4.48036
225 4.85654
230 3.636
235 4.69733
240 4.40484
245 17.7905
250 356.476
255 1014.32
260 292.847
265 46.2003
270 17.9005
275 18.1239
280 14.9429
285 12.7418
290 12.946
295 14.0054
300 12.2517
305 14.4236
310 16.1786
315 16.2848
320 18.2532
325 16.1954
330 15.8048
335 15.942
340 17.4199
345 16.7226
350 17.8137
355 18.5895
360 16.575
365 16.69
370 17.4071
375 15.1742
380 17.4371
385 17.2885
390 16.1466
395 18.9104
400 15.9607
405 17.752
410 17.4556
415 17.8444
420 16.633
425 15.8233
430 13.12
435 15.3973
440 17.0511
445 14.6038
450 17.1194
455 16.7985
460 17.0803
465 18.3306
470 17.2344
475 15.7365
480 17.616
485 17.1235
490 17.4707
495 18.5715
500 109.272
505 1107.9
510 3984.37
515 5897.87
520 2964.7
525 523.118
530 111.421
535 55.9422
540 49.7154
545 41.9316
550 43.9865
555 46.2233
560 46.3424
565 42.8811
570 33.6332
575 32.7378
580 27.666
585 26.149
590 22.9808
595 21.3254
600 25.2781
Ex : 263
200 3.59798
205 4.0146
210 3.00496
215 4.36413
220 3.24846
225 4.54796
230 5.22343
235 4.32992
240 4.55681
245 5.7095
250 54.6006
255 1062.16
260 2073.33
265 573.622
270 82.8621
275 21.8932
280 19.3112
285 16.5762
290 14.8659
295 14.6595
300 14.7066
305 14.2171
310 16.0003
315 16.4359
320 16.8059
325 17.1026
330 16.7159
335 16.9655
340 15.8706
345 16.9701
350 17.4781
355 17.1993
360 17.4091
365 16.1029
370 15.542
375 14.6208
380 14.2989
385 14.5144
390 15.6588
395 13.5908
400 15.272
405 14.9468
410 15.1517
415 13.2649
420 14.958
425 15.0074
430 13.3789
435 13.3412
440 14.0989
445 14.019
450 12.7768
455 14.5054
460 15.3375
465 15.8437
470 16.1637
475 14.9919
480 16.3273
485 17.0425
490 16.8718
495 16.91
500 20.252
505 27.435
510 410.714
515 3448.76
520 9999.9
525 9999.9
530 4913.28
535 839.024
540 156.485
545 65.94
550 51.8434
555 46.0781
560 43.4371
565 44.5409
570 45.3827
575 41.8686
580 33.8064
585 29.5359
590 24.9105
595 24.4303
600 19.1049
Ex : 268
200 3.51535
205 2.3564
210 3.46385
215 3.09424
220 3.89079
225 4.32903
230 3.82975
235 4.26376
240 5.35628
245 5.47003
250 7.08614
255 97.9301
260 1885.39
265 3640.23
270 1018.79
275 139.319
280 33.1753
285 20.6261
290 19.8924
295 16.3426
300 15.4289
305 15.7306
310 14.7653
315 16.917
320 16.7876
325 16.5808
330 15.6632
335 15.9957
340 16.1741
345 15.7682
350 15.5366
355 15.3686
360 14.7737
365 16.3654
370 15.678
375 13.296
380 13.1867
385 13.1566
390 13.4119
395 12.1831
400 11.7547
405 13.0041
410 12.5955
415 12.4878
420 12.8133
425 11.9799
430 12.3716
435 13.1113
440 11.987
445 11.7127
450 13.8102
455 14.279
460 12.5478
465 15.2707
470 13.705
475 14.1674
480 17.2855
485 16.1838
490 17.1769
495 17.1201
500 15.6502
505 18.2688
510 25.6482
515 38.6472
520 761.268
525 6275.65
530 9999.9
535 9999.9
540 6488.15
545 1119.62
550 195.092
555 78.189
560 53.7784
565 44.5288
570 40.0383
575 44.5285
580 44.5089
585 38.5715
590 32.2907
595 27.0963
600 28.488
Ex : 273
200 4.36965
205 3.75015
210 3.62059
215 3.9221
220 4.07796
225 3.44662
230 4.0758
235 3.69027
240 4.69395
245 5.35981
250 6.14335
255 8.82042
260 155.139
265 3007.89
270 5333.69
275 1333.68
280 177.388
285 39.0984
290 21.6919
295 20.3056
300 19.9628
305 17.1853
310 16.1022
315 15.6682
320 16.49
325 14.4465
330 15.7651
335 16.505
340 16.8182
345 16.1882
350 15.4934
355 15.1497
360 13.8628
365 12.8032
370 13.7416
375 13.2698
380 14.3642
385 13.098
390 12.9833
395 12.0335
400 11.6516
405 10.2068
410 11.1195
415 12.0968
420 11.6763
425 12.3421
430 11.3914
435 11.028
440 10.4073
445 12.1448
450 11.9679
455 12.6603
460 13.3514
465 13.341
470 12.6251
475 13.1552
480 13.38
485 14.9649
490 14.4537
495 14.3778
500 15.5495
505 16.8218
510 18.7993
515 23.6302
520 29.6083
525 54.1159
530 1277.1
535 9306.75
540 9999.9
545 9999.9
550 7109.24
555 1161.88
560 204.232
565 77.4234
570 54.186
575 43.4548
580 39.4147
585 38.8579
590 38.5749
595 38.2385
600 49.0456
Ex : 278
200 2.543
205 3.10065
210 3.68343
215 3.0015
220 3.33614
225 3.6902
230 3.25967
235 3.85387
240 3.74011
245 4.10293
250 5.98556
255 7.41119
260 10.5237
265 209.341
270 3880.55
275 6643.34
280 1643.8
285 214.431
290 41.6645
295 23.0194
300 23.1873
305 20.6507
310 15.8445
315 16.6888
320 17.2626
325 16.7846
330 17.2915
335 16.6321
340 15.9918
345 15.4325
350 14.9063
355 14.124
360 13.4818
365 13.1118
370 13.1578
375 12.539
380 11.4911
385 11.2216
390 11.1972
395 12.0834
400 10.7911
405 12.1346
410 11.6023
415 10.6198
420 10.4109
425 10.4061
430 9.57554
435 11.6869
440 10.6619
445 10.9031
450 11.4145
455 11.2918
460 12.7456
465 12.1467
470 13.0736
475 11.3836
480 12.8341
485 13.3886
490 12.992
495 12.9518
500 13.875
505 14.2095
510 16.171
515 17.3007
520 21.66
525 26.1957
530 34.8167
535 64.9476
540 1678.17
545 9999.9
550 9999.9
555 9999.9
560 7414.66
565 1223.88
570 206.376
575 74.8594
580 49.7636
585 40.6302
590 34.679
595 34.3633
600 38.6996
Ex : 283
200 2.81132
205 3.29247
210 3.33245
215 3.51357
220 3.29526
225 3.19084
230 3.70749
235 4.29588
240 3.6732
245 4.64093
250 4.97973
255 5.66115
260 8.30132
265 12.0602
270 266.048
275 4719.57
280 7423.41
285 1869.87
290 240.537
295 45.8271
300 23.5994
305 22.8107
310 22.7412
315 18.1183
320 16.7096
325 16.2171
330 16.3254
335 15.303
340 16.5904
345 14.71
350 14.8485
355 13.4876
360 13.0747
365 11.5402
370 11.3556
375 11.7015
380 10.4139
385 10.6973
390 10.2252
395 10.4722
400 10.334
405 10.7572
410 11.387
415 10.9498
420 10.4616
425 10.3192
430 9.39551
435 9.67609
440 9.71914
445 9.904
450 10.5416
455 10.207
460 10.0777
465 10.6144
470 10.3917
475 10.7694
480 11.7655
485 10.1663
490 10.8419
495 12.1403
500 11.601
505 11.3877
510 12.5803
515 13.6406
520 16.7481
525 18.4042
530 22.907
535 28.5977
540 38.7456
545 74.034
550 1995.71
555 9999.9
560 9999.9
565 9999.9
570 7073.11
575 1135.53
580 191.412
585 67.7908
590 45.4985
595 35.8676
600 26.9844
Ex : 288
200 2.68493
205 2.61298
210 3.23006
215 3.15516
220 3.27676
225 3.00721
230 3.22026
235 3.31691
240 3.6966
245 3.5904
250 4.04229
255 4.95052
260 6.13079
265 7.93311
270 13.3664
275 283.864
280 5241.1
285 8083.69
290 2021.48
295 259.33
300 50.246
305 22.5518
310 21.681
315 22.5479
320 18.3772
325 16.0452
330 15.0122
335 15.0366
340 13.8842
345 12.9718
350 12.7736
355 12.1775
360 11.7746
365 11.0186
370 11.1991
375 11.1183
380 10.021
385 10.1624
390 9.51157
395 9.9977
400 9.84567
405 9.71567
410 9.84588
415 9.84321
420 9.21957
425 9.15304
430 8.64196
435 8.22807
440 9.0544
445 8.76911
450 9.20249
455 9.01791
460 9.08113
465 10.1195
470 10.0836
475 9.46452
480 9.14492
485 9.14045
490 9.54502
495 9.8056
500 11.24
505 11.0766
510 11.3235
515 11.7664
520 12.7118
525 13.6238
530 16.5102
535 19.2506
540 23.7382
545 30.4484
550 39.4038
555 71.5527
560 2032.87
565 9999.9
570 9999.9
575 9999.9
580 6608.41
585 1029.71
590 171.879
595 60.4404
600 37.1237
Ex : 293
200 2.72988
205 2.68286
210 3.00839
215 2.62759
220 2.87284
225 3.23111
230 2.86849
235 3.56151
240 3.48458
245 3.73494
250 4.04991
255 3.99825
260 4.87996
265 5.80456
270 8.44407
275 14.6304
280 349.026
285 5702.63
290 8585.01
295 2099.71
300 267.525
305 48.7993
310 22.2071
315 21.9042
320 22.3571
325 17.65
330 14.1654
335 13.5585
340 13.806
345 13.506
350 12.9346
355 12.4367
360 11.2759
365 10.1391
370 10.1995
375 9.57249
380 9.51514
385 9.90191
390 9.39424
395 9.60484
400 8.92306
405 9.29045
410 9.12025
415 9.26968
420 8.9037
425 8.42186
430 8.28765
435 7.64516
440 7.92676
445 8.08499
450 8.3464
455 7.85763
460 8.19831
465 9.16404
470 9.14886
475 8.00191
480 8.35054
485 8.64236
490 8.44338
495 9.08847
500 9.61923
505 9.09723
510 9.07458
515 10.0078
520 10.4603
525 10.6227
530 12.1153
535 14.1946
540 16.3913
545 20.2873
550 23.3031
555 29.6809
560 40.7658
565 79.9797
570 2211.12
575 9999.9
580 9999.9
585 9999.9
590 5577.43
595 834.762
600 162.808
Ex : 298
200 2.32645
205 2.49004
210 2.39982
215 2.55424
220 2.68997
225 2.49025
230 3.05694
235 2.56396
240 2.75582
245 3.33247
250 3.58809
255 3.61207
260 3.96648
265 4.99989
270 6.47419
275 9.31346
280 15.525
285 374.133
290 6354.18
295 9487.41
300 2313.2
305 292.254
310 52.7906
315 22.9107
320 21.0987
325 21.2351
330 18.1443
335 13.5338
340 12.371
345 11.7136
350 11.9662
355 10.872
360 10.2484
365 9.80114
370 9.77571
375 9.40479
380 8.81294
385 9.03139
390 8.88247
395 8.57613
400 8.68298
405 9.20084
410 8.67422
415 7.8479
420 7.90911
425 7.63278
430 7.68429
435 7.61381
440 7.74038
445 7.11605
450 7.84954
455 7.57594
460 7.81145
465 7.86108
470 7.63407
475 7.54909
480 7.45181
485 7.43548
490 7.06583
495 7.02073
500 7.06736
505 7.53909
510 7.65932
515 8.44265
520 8.62645
525 8.46601
530 9.89443
535 11.0809
540 11.5292
545 13.6158
550 15.8834
555 19.869
560 23.3501
565 30.0684
570 39.1044
575 83.8802
580 2440.52
585 9999.9
590 9999.9
595 9999.9
600 9768.2
Ex : 303
200 1.96309
205 2.10622
210 2.09049
215 1.95662
220 2.38326
225 2.50272
230 2.66891
235 2.8867
240 3.19992
245 3.03372
250 2.89846
255 3.18607
260 3.74965
265 4.415
270 4.56854
275 6.62787
280 9.31109
285 15.8219
290 391.972
295 6700.25
300 9999.9
305 2390.15
310 301.368
315 54.9005
320 22.404
325 18.8136
330 20.6339
335 17.7114
340 13.2946
345 11.6222
350 10.4461
355 9.82915
360 9.38559
365 9.23151
370 8.5427
375 9.00138
380 8.80003
385 8.12479
390 8.27533
395 8.44716
400 7.73903
405 7.99653
410 7.96976
415 7.64351
420 7.34986
425 6.83095
430 7.25849
435 7.10407
440 6.94275
445 7.01297
450 7.23834
455 7.19426
460 6.36341
465 6.11785
470 6.35475
475 6.06916
480 6.52446
485 6.43238
490 7.16583
495 6.6346
500 6.70533
505 6.60201
510 6.66669
515 6.87353
520 7.26989
525 7.40534
530 8.06809
535 8.68729
540 9.30331
545 10.2148
550 11.9616
555 13.326
560 15.3246
565 17.3403
570 21.7929
575 28.0681
580 37.7199
585 85.2549
590 2533.29
595 9999.9
600 9999.9
Ex : 308
200 2.11584
205 2.15915
210 2.17866
215 1.89658
220 2.48229
225 2.16029
230 2.18028
235 2.40115
240 2.35268
245 2.47448
250 2.92848
255 2.95848
260 3.39532
265 3.78202
270 4.25352
275 5.02267
280 6.81698
285 9.49686
290 16.2041
295 461.611
300 7256.31
305 9999.9
310 2429.52
315 306.694
320 54.9785
325 21.7422
330 17.7482
335 19.7485
340 18.0191
345 12.9616
350 10.4077
355 9.40244
360 8.46403
365 9.07844
370 8.46593
375 8.27247
380 8.3507
385 7.5131
390 8.29907
395 7.97183
400 7.53152
405 7.61653
410 7.37728
415 7.07235
420 6.91371
425 7.05134
430 6.39296
435 6.15135
440 6.16929
445 6.52816
450 6.54504
455 6.40556
460 6.19828
465 6.18294
470 6.57822
475 6.10669
480 5.98068
485 6.37989
490 6.33472
495 6.02983
500 6.20128
505 6.14522
510 5.96811
515 6.03674
520 6.19882
525 6.25246
530 6.85397
535 7.19437
540 7.86598
545 8.58281
550 9.53114
555 10.0443
560 11.352
565 12.7351
570 15.3629
575 17.3356
580 20.7523
585 26.4609
590 35.6015
595 97.887
600 415.1
Ex : 313
200 2.05937
205 2.05109
210 1.99054
215 1.9726
220 1.92483
225 2.3684
230 2.03688
235 2.40156
240 2.35901
245 2.12394
250 2.61155
255 2.81789
260 2.73565
265 3.33722
270 3.713
275 4.27104
280 5.80286
285 7.29952
290 9.99596
295 17.0087
300 480.973
305 7982.06
310 9999.9
315 2534.69
320 319.955
325 56.5525
330 22.2359
335 16.9363
340 18.2798
345 18.3148
350 13.7277
355 9.94158
360 8.91574
365 8.85978
370 8.42761
375 8.09
380 7.78054
385 8.10225
390 7.29973
395 6.94797
400 7.25126
405 6.66274
410 6.37509
415 6.14062
420 6.2534
425 6.09123
430 5.78989
435 5.78191
440 5.45418
445 5.72314
450 5.38592
455 5.81145
460 5.55438
465 6.08285
470 5.66918
475 5.3083
480 5.21236
485 5.28492
490 5.30621
495 5.87529
500 5.35547
505 5.48216
510 5.40543
515 5.75866
520 5.62962
525 5.56035
530 5.93675
535 6.29803
540 6.65892
545 6.71027
550 7.83815
555 8.73041
560 8.90313
565 9.63323
570 10.8618
575 12.031
580 13.8738
585 16.9215
590 19.6784
595 24.9503
600 30.4109
Ex : 318
200 1.82212
205 2.05078
210 1.85996
215 1.80625
220 2.02455
225 1.9749
230 2.01
235 1.99159
240 2.17564
245 2.35441
250 2.59848
255 2.55734
260 2.49774
265 3.0567
270 3.4771
275 4.05536
280 4.83759
285 5.68434
290 7.70975
295 10.5041
300 18.1355
305 596.162
310 9016.15
315 9999.9
320 2630.53
325 331.757
330 58.3461
335 21.8748
340 16.8285
345 18.0041
350 17.4506
355 14.1996
360 10.4282
365 9.00845
370 7.98926
375 7.85311
380 7.80767
385 7.69947
390 6.92442
395 6.90424
400 6.51589
405 6.82234
410 6.68113
415 6.43652
420 5.98534
425 5.77794
430 5.49423
435 5.35544
440 5.2348
445 5.59367
450 5.22434
455 5.45731
460 5.39051
465 5.81509
470 5.45429
475 5.45112
480 4.88372
485 5.28038
490 5.17675
495 5.53674
500 5.08604
505 4.81346
510 5.29153
515 4.99952
520 5.50622
525 5.3411
530 5.21339
535 5.38584
540 5.64217
545 6.40364
550 6.46912
555 7.40887
560 7.77354
565 8.13218
570 8.30432
575 8.66243
580 10.3751
585 11.7906
590 13.0802
595 15.7406
600 15.0477
Ex : 323
200 1.82603
205 1.88496
210 1.83934
215 1.98817
220 1.73237
225 2.0664
230 2.05701
235 2.12291
240 2.06518
245 2.43362
250 2.3256
255 2.42316
260 2.79927
265 2.58464
270 3.05599
275 3.44478
280 4.11448
285 4.83063
290 6.22956
295 8.00327
300 11.1161
305 18.7475
310 620.475
315 9540.82
320 9999.9
325 2910.05
330 364.784
335 63.1315
340 22.8351
345 15.9653
350 16.4437
355 16.6175
360 14.6696
365 10.8434
370 8.79598
375 8.22271
380 7.78773
385 7.3876
390 7.77564
395 7.08069
400 6.60469
405 6.48997
410 6.17882
415 6.02389
420 5.84582
425 5.27764
430 5.54818
435 5.34344
440 5.17845
445 5.23965
450 5.34472
455 5.38272
460 5.20808
465 4.97761
470 5.43362
475 5.01325
480 4.95387
485 4.76798
490 4.51327
495 5.23851
500 5.05561
505 4.72913
510 4.51033
515 4.50231
520 4.5511
525 4.89033
530 4.66793
535 5.15302
540 5.07659
545 5.65358
550 5.7556
555 6.05966
560 6.61423
565 6.83845
570 6.98961
575 7.46296
580 8.07977
585 8.62691
590 9.50679
595 10.8639
600 11.2028
Ex : 328
200 1.58262
205 1.55305
210 1.51869
215 1.80409
220 1.7532
225 1.57447
230 1.76302
235 1.92065
240 1.89944
245 2.08942
250 2.06594
255 2.17502
260 2.48416
265 2.52783
270 2.93693
275 3.10622
280 3.41879
285 3.99182
290 4.45604
295 5.78917
300 7.98784
305 11.053
310 19.9671
315 634.888
320 9999.9
325 9999.9
330 2923.07
335 367.114
340 62.8759
345 21.9806
350 15.7876
355 15.3761
360 16.1133
365 15.6659
370 11.7371
375 9.00066
380 8.11825
385 8.0919
390 7.58004
395 7.1447
400 6.67965
405 6.43515
410 6.26044
415 6.06856
420 6.05937
425 5.64804
430 5.50668
435 5.27361
440 5.31488
445 5.49723
450 5.26447
455 5.05945
460 5.41167
465 5.15984
470 5.26838
475 5.15872
480 4.95993
485 4.48877
490 4.60232
495 4.69361
500 4.42147
505 4.50855
510 4.49294
515 4.627
520 4.77351
525 4.28223
530 4.67387
535 4.48431
540 4.78128
545 5.07804
550 5.07094
555 5.36726
560 5.41356
565 5.8807
570 5.88919
575 6.18177
580 6.57156
585 7.08116
590 7.07129
595 8.057
600 9.0027
Ex : 333
200 1.66246
205 1.66137
210 1.7153
215 1.66158
220 1.59633
225 1.74189
230 1.83367
235 2.09131
240 2.13226
245 1.92461
250 2.10785
255 2.09385
260 2.2206
265 2.61018
270 2.68233
275 2.91006
280 3.20834
285 3.69642
290 4.02388
295 4.99896
300 6.07689
305 8.2525
310 12.0564
315 21.0276
320 752.541
325 9999.9
330 9999.9
335 2979.3
340 372.432
345 63.6825
350 22.6343
355 14.7818
360 14.073
365 15.3755
370 14.7107
375 11.9488
380 9.11851
385 8.39875
390 7.5054
395 7.10265
400 6.50201
405 6.95972
410 6.17897
415 6.35236
420 5.80136
425 5.26123
430 5.12089
435 4.96136
440 5.1179
445 5.09268
450 4.99689
455 5.08419
460 5.00232
465 5.05453
470 5.0517
475 4.8225
480 4.47933
485 4.46883
490 4.4447
495 4.30751
500 4.72331
505 4.43679
510 4.05601
515 4.09389
520 4.40441
525 4.20464
530 4.10612
535 4.4683
540 4.57848
545 4.63017
550 4.58739
555 4.85493
560 4.84736
565 5.12505
570 5.17807
575 5.38835
580 5.43277
585 5.79385
590 6.32953
595 6.5923
600 5.92718
Ex : 338
200 1.3967
205 1.59354
210 1.51316
215 1.6812
220 1.57291
225 1.81185
230 1.70837
235 1.71909
240 1.79575
245 1.87633
250 1.89597
255 1.92627
260 2.34335
265 2.27914
270 2.4753
275 2.78936
280 2.86228
285 3.02782
290 3.80905
295 4.20166
300 5.09775
305 6.03788
310 8.67671
315 12.5748
320 21.9558
325 800.378
330 9999.9
335 9999.9
340 3072.22
345 383.282
350 65.7102
355 22.1677
360 15.0541
365 13.3667
370 14.2203
375 14.7627
380 12.4241
385 9.6054
390 8.12118
395 7.67584
400 6.91715
405 6.76939
410 6.43351
415 6.00385
420 5.57273
425 5.74712
430 5.31185
435 5.20891
440 4.79737
445 4.93813
450 5.13588
455 4.68469
460 4.98671
465 4.88345
470 4.89652
475 4.5783
480 4.59125
485 4.26809
490 4.07602
495 4.34331
500 3.85471
505 3.77217
510 4.09277
515 3.94326
520 4.03581
525 4.008
530 3.84883
535 3.87341
540 4.24394
545 4.14672
550 4.1891
555 4.16708
560 4.39764
565 4.02157
570 4.64702
575 4.6426
580 4.77924
585 5.0759
590 5.15991
595 5.57148
600 5.89064
Ex : 343
200 1.49723
205 1.44157
210 1.38186
215 1.49661
220 1.47114
225 1.61602
230 1.59961
235 1.53815
240 1.78741
245 1.73808
250 1.63205
255 1.73142
260 2.03287
265 1.86447
270 2.33634
275 2.2389
280 2.42689
285 2.81951
290 3.19314
295 3.7012
300 4.19137
305 4.69997
310 6.66758
315 8.5964
320 12.701
325 22.1064
330 799.959
335 9999.9
340 9999.9
345 3184.72
350 396.809
355 66.3863
360 22.1664
365 14.6912
370 12.0166
375 13.3627
380 14.3685
385 13.506
390 10.0492
395 8.23081
400 7.23311
405 6.99984
410 6.51988
415 5.95304
420 5.55953
425 5.2158
430 5.1927
435 4.92863
440 5.13803
445 4.88803
450 5.15468
455 4.80568
460 4.74416
465 4.90405
470 4.66025
475 4.22202
480 4.10389
485 4.26889
490 4.29935
495 4.14827
500 3.73934
505 3.72106
510 3.96927
515 4.13062
520 3.70191
525 3.73371
530 3.80899
535 3.855
540 3.66247
545 4.09467
550 3.72185
555 3.96506
560 3.81384
565 3.80676
570 3.72886
575 4.03042
580 4.01635
585 4.25749
590 4.3315
595 4.55694
600 4.76496
Ex : 348
200 1.20533
205 1.28878
210 1.2807
215 1.35826
220 1.35892
225 1.31241
230 1.36121
235 1.55646
240 1.44226
245 1.42798
250 1.61168
255 1.75015
260 1.79874
265 2.03528
270 1.99068
275 2.15019
280 2.1213
285 2.46084
290 2.71814
295 3.33378
300 3.56245
305 4.20559
310 5.09528
315 6.43743
320 8.82788
325 12.9056
330 22.2272
335 742.035
340 9999.9
345 9999.9
350 3507.09
355 433.006
360 70.4777
365 22.2911
370 14.1144
375 11.4727
380 12.1946
385 13.5258
390 13.2778
395 10.6606
400 7.85606
405 7.0873
410 6.57912
415 6.42141
420 5.88691
425 5.40564
430 4.96983
435 5.03127
440 4.87613
445 4.47396
450 4.68031
455 4.49262
460 4.49646
465 4.55565
470 4.3986
475 4.33746
480 4.21079
485 4.27514
490 4.12944
495 4.02476
500 3.67154
505 3.57509
510 3.38327
515 3.23732
520 3.17916
525 3.35245
530 3.10292
535 3.40289
540 3.57711
545 3.65534
550 3.42716
555 3.40219
560 3.45756
565 3.53892
570 3.63051
575 3.55078
580 3.46815
585 3.54181
590 3.90753
595 3.7391
600 2.15488
Ex : 353
200 1.25073
205 1.34362
210 1.18991
215 1.19811
220 1.27428
225 1.25484
230 1.3806
235 1.3412
240 1.33984
245 1.24127
250 1.45242
255 1.61416
260 1.68948
265 1.59679
270 1.87024
275 2.00183
280 2.06273
285 2.23565
290 2.65562
295 2.79314
300 3.20042
305 3.56839
310 4.12718
315 5.09056
320 6.6814
325 8.80178
330 13.34
335 22.995
340 789.415
345 9999.9
350 9999.9
355 3426.55
360 424.449
365 69.2832
370 22.6749
375 14.0582
380 11.8078
385 11.3528
390 12.9049
395 13.0571
400 11.0718
405 7.84463
410 6.8954
415 6.25317
420 5.7455
425 5.73854
430 5.4185
435 5.15955
440 5.0197
445 4.71373
450 4.65969
455 4.81443
460 4.29196
465 4.46529
470 4.3441
475 4.1769
480 4.06286
485 4.17066
490 3.90398
495 3.6697
500 3.68951
505 3.60165
510 3.55719
515 3.41133
520 3.17695
525 3.07704
530 3.25155
535 3.04048
540 3.23706
545 3.22561
550 3.01415
555 3.44176
560 3.46036
565 2.98131
570 3.20504
575 3.17439
580 3.2755
585 3.32327
590 3.16196
595 3.40573
600 2.4242
Ex : 358
200 1.0741
205 1.06638
210 1.15367
215 1.13269
220 1.13249
225 1.25629
230 1.13969
235 1.13593
240 1.29192
245 1.35953
250 1.36933
255 1.54961
260 1.5819
265 1.59909
270 1.80308
275 1.87213
280 1.78802
285 2.0635
290 2.21167
295 2.38276
300 2.61091
305 3.11743
310 3.7331
315 4.26267
320 5.47355
325 6.81648
330 8.82113
335 13.2612
340 22.9817
345 763.213
350 9999.9
355 9999.9
360 3544.57
365 437.351
370 70.6525
375 22.6404
380 14.1
385 11.4555
390 10.5573
395 12.037
400 13.008
405 11.5295
410 8.63185
415 6.69631
420 5.90799
425 5.78703
430 5.33905
435 4.95438
440 5.14997
445 4.93033
450 4.58229
455 4.37115
460 4.36212
465 4.37385
470 4.14627
475 4.17511
480 4.03418
485 3.94061
490 3.71609
495 3.60231
500 3.37014
505 3.30665
510 3.39298
515 3.24726
520 3.00982
525 2.97739
530 2.94061
535 3.07007
540 2.86633
545 2.9229
550 3.08486
555 3.0979
560 2.96772
565 2.93577
570 2.94517
575 2.94516
580 2.74995
585 2.89474
590 2.92184
595 2.90524
600 3.65011
Ex : 363
200 1.02903
205 1.12326
210 1.00654
215 0.999233
220 1.10392
225 1.15668
230 1.18502
235 1.08464
240 1.23623
245 1.2495
250 1.2844
255 1.26877
260 1.35001
265 1.39455
270 1.45467
275 1.68852
280 1.69442
285 1.88283
290 2.00334
295 2.12645
300 2.38724
305 2.47289
310 2.9707
315 3.51705
320 4.09664
325 4.87373
330 6.81151
335 8.82943
340 13.4809
345 22.3497
350 699.782
355 9999.9
360 9999.9
365 3722.65
370 458.246
375 72.4524
380 22.3823
385 14.2481
390 11.4036
395 10.1498
400 10.7705
405 12.2406
410 11.7069
415 8.86128
420 6.58444
425 5.85016
430 5.4372
435 5.08798
440 5.0816
445 4.76708
450 4.51644
455 4.61961
460 4.32677
465 4.39049
470 4.2516
475 4.13155
480 3.67044
485 3.74015
490 3.84396
495 3.47093
500 3.5009
505 3.32199
510 3.08704
515 2.94725
520 3.01369
525 2.98319
530 2.94348
535 2.89237
540 2.91145
545 2.68795
550 2.60757
555 2.57828
560 2.68076
565 2.83579
570 2.72957
575 2.62825
580 2.585
585 2.56554
590 2.58229
595 2.53165
600 2.54388
Ex : 368
200 0.990979
205 0.991253
210 0.959757
215 0.997937
220 1.08756
225 1.01502
230 1.07581
235 1.09472
240 1.08965
245 1.14325
250 1.32774
255 1.38251
260 1.31778
265 1.3128
270 1.48524
275 1.55569
280 1.57376
285 1.67767
290 1.84695
295 2.08892
300 2.40425
305 2.43488
310 2.75558
315 3.14747
320 3.47774
325 4.43012
330 5.37631
335 6.97023
340 9.21169
345 13.6572
350 22.7194
355 605.949
360 9999.9
365 9999.9
370 4102.73
375 505.195
380 78.4493
385 24.0735
390 14.4223
395 11.3757
400 9.35713
405 10.0061
410 11.3663
415 11.1355
420 9.22938
425 6.91934
430 5.90396
435 5.54464
440 5.19736
445 4.96909
450 4.55094
455 4.4552
460 4.40778
465 4.38725
470 4.19668
475 4.01027
480 3.77974
485 3.57879
490 3.44221
495 3.3164
500 3.21023
505 3.16359
510 2.87825
515 3.01646
520 2.87517
525 2.76838
530 2.58752
535 2.73928
540 2.55756
545 2.63585
550 2.69902
555 2.67074
560 2.74338
565 2.5873
570 2.33527
575 2.34081
580 2.30379
585 2.34284
590 2.39181
595 2.3284
600 1.87654
Ex : 373
200 1.01635
205 1.08074
210 0.994121
215 0.955541
220 1.02011
225 0.910191
230 1.03612
235 1.08069
240 1.06749
245 1.18971
250 1.09769
255 1.30267
260 1.25959
265 1.34455
270 1.40377
275 1.5592
280 1.55381
285 1.67911
290 1.72892
295 1.94325
300 2.06887
305 2.22312
310 2.53735
315 2.7725
320 3.11101
325 3.6472
330 4.26324
335 5.65855
340 7.15931
345 9.32409
350 13.7996
355 23.8758
360 744.397
365 9999.9
370 9999.9
375 4136.57
380 507.17
385 79.2655
390 24.5128
395 14.8881
400 11.4477
405 9.47426
410 9.63281
415 10.7001
420 11.0385
425 9.43227
430 7.22713
435 5.7743
440 5.64587
445 5.27063
450 5.25196
455 4.8214
460 4.35736
465 4.03554
470 4.1008
475 3.96939
480 3.62371
485 3.54326
490 3.49561
495 3.32166
500 3.25741
505 2.88771
510 3.07811
515 2.81614
520 2.72873
525 2.63801
530 2.52815
535 2.45275
540 2.37687
545 2.45021
550 2.31686
555 2.3399
560 2.38514
565 2.29677
570 2.32587
575 2.29301
580 2.08858
585 2.22041
590 2.06192
595 2.02504
600 2.54201
Ex : 378
200 0.998258
205 0.999589
210 1.05652
215 0.941902
220 0.894898
225 0.941632
230 0.933264
235 0.985581
240 1.14526
245 1.03984
250 1.15275
255 1.2194
260 1.15874
265 1.17989
270 1.19821
275 1.37051
280 1.46633
285 1.48952
290 1.57323
295 1.68386
300 1.83992
305 2.11855
310 2.27553
315 2.42241
320 2.92918
325 3.38995
330 3.81102
335 4.45533
340 5.44516
345 6.91954
350 9.24361
355 13.8748
360 23.2449
365 713.174
370 9999.9
375 9999.9
380 4156.59
385 510.126
390 79.8691
395 24.6846
400 14.2829
405 11.1769
410 9.23483
415 8.55411
420 10.0148
425 10.5258
430 10.0355
435 7.53737
440 5.88141
445 5.40151
450 4.94684
455 4.85921
460 4.61122
465 4.32191
470 4.16523
475 3.92124
480 3.87505
485 3.56924
490 3.49615
495 3.1297
500 3.20996
505 2.82123
510 2.76143
515 2.70531
520 2.66381
525 2.55155
530 2.60572
535 2.28093
540 2.45635
545 2.3625
550 2.34802
555 2.31225
560 2.2545
565 2.23484
570 2.08329
575 2.10876
580 2.03517
585 1.97355
590 2.02917
595 1.99783
600 2.30903
Ex : 383
200 1.02975
205 1.01192
210 0.947803
215 0.981252
220 0.858967
225 0.998036
230 1.00964
235 1.10671
240 0.988459
245 0.926097
250 1.01455
255 1.13722
260 1.15425
265 1.20978
270 1.32746
275 1.36176
280 1.41246
285 1.5065
290 1.57467
295 1.62899
300 1.79438
305 1.89942
310 1.97674
315 2.07538
320 2.5064
325 2.84749
330 3.29306
335 3.80387
340 4.55743
345 5.33265
350 6.80849
355 9.58745
360 13.8585
365 23.4818
370 675.036
375 9999.9
380 9999.9
385 4415.13
390 541.656
395 83.6068
400 24.4216
405 14.3184
410 10.7947
415 8.75225
420 8.00432
425 9.11603
430 9.92457
435 10.0272
440 8.10629
445 6.06999
450 5.37183
455 4.93214
460 4.7047
465 4.78067
470 4.54034
475 4.11295
480 3.77322
485 3.60033
490 3.52976
495 3.19975
500 3.06645
505 2.8559
510 2.7237
515 2.65096
520 2.67575
525 2.5022
530 2.43601
535 2.40863
540 2.37426
545 2.27105
550 2.1966
555 2.2412
560 2.16924
565 1.95297
570 2.04304
575 1.96083
580 1.93754
585 1.84885
590 1.83025
595 1.72478
600 2.00277
Ex : 388
200 1.01219
205 1.02477
210 0.866046
215 1.02564
220 0.953439
225 1.01801
230 1.04874
235 0.980624
240 1.10797
245 1.09243
250 1.08255
255 1.04614
260 1.18714
265 1.3115
270 1.23309
275 1.35552
280 1.42109
285 1.48977
290 1.44865
295 1.56256
300 1.71853
305 1.86464
310 2.00849
315 2.19772
320 2.40708
325 2.69854
330 2.86852
335 3.32363
340 3.95532
345 4.61908
350 5.92422
355 7.01099
360 9.8527
365 14.1986
370 24.203
375 737.155
380 9999.9
385 9999.9
390 4518.26
395 552.621
400 84.537
405 24.7526
410 14.5988
415 11.1389
420 8.86001
425 7.71165
430 8.56378
435 9.55342
440 9.32235
445 8.38336
450 6.63923
455 5.30873
460 5.01735
465 4.74459
470 4.31837
475 4.08532
480 3.77358
485 3.6558
490 3.54665
495 3.2238
500 3.16485
505 2.78451
510 2.88344
515 2.70152
520 2.51906
525 2.60421
530 2.51772
535 2.58302
540 2.31201
545 2.1911
550 2.20652
555 2.01563
560 2.19667
565 2.14348
570 1.90874
575 1.95271
580 1.97309
585 1.8069
590 1.78266
595 1.72473
600 1.09065
Ex : 393
200 0.87267
205 0.844501
210 0.863162
215 0.913706
220 0.865108
225 0.984025
230 1.03507
235 1.11233
240 1.0467
245 1.00575
250 1.15203
255 1.04801
260 1.12426
265 1.22887
270 1.2432
275 1.39548
280 1.4037
285 1.5198
290 1.45542
295 1.49047
300 1.56169
305 1.65124
310 1.83819
315 2.05671
320 2.34679
325 2.39059
330 2.70459
335 3.05969
340 3.46677
345 4.03367
350 4.66432
355 5.54142
360 7.26281
365 9.80809
370 14.5107
375 23.8513
380 689.594
385 9999.9
390 9999.9
395 4742.99
400 580.15
405 87.9966
410 24.7564
415 14.3986
420 10.9216
425 8.43945
430 7.39529
435 7.9548
440 9.1062
445 9.42599
450 8.99289
455 7.09022
460 5.50947
465 4.78498
470 4.59715
475 4.31587
480 3.99829
485 3.61644
490 3.50585
495 3.29573
500 3.04047
505 2.80879
510 2.83476
515 2.7885
520 2.55833
525 2.64753
530 2.41372
535 2.37668
540 2.44808
545 2.23795
550 2.24252
555 2.05199
560 1.85076
565 2.01981
570 1.90276
575 1.7768
580 1.76442
585 1.7921
590 1.67366
595 1.78954
600 2.09525
Ex : 398
200 1.01749
205 0.897665
210 0.88494
215 0.86
220 0.972089
225 0.928984
230 0.968441
235 1.03528
240 0.988656
245 1.04417
250 1.10847
255 1.04508
260 1.09985
265 1.06516
270 1.12351
275 1.35184
280 1.35419
285 1.40912
290 1.44665
295 1.5533
300 1.60328
305 1.74609
310 1.7432
315 1.91005
320 2.20429
325 2.2998
330 2.51115
335 2.92124
340 3.17977
345 3.49926
350 4.20978
355 4.99314
360 5.87151
365 7.40721
370 9.78866
375 14.7592
380 24.6263
385 735.213
390 9999.9
395 9999.9
400 4866.12
405 593.947
410 89.0251
415 24.9122
420 14.1578
425 10.6642
430 8.31907
435 7.07376
440 7.40883
445 8.63695
450 8.93641
455 8.66689
460 7.51711
465 5.67588
470 4.88354
475 4.25343
480 4.0608
485 3.69803
490 3.57356
495 3.27776
500 3.1352
505 2.97553
510 2.96062
515 2.7128
520 2.57192
525 2.47851
530 2.44001
535 2.32536
540 2.2094
545 2.27417
550 2.19802
555 2.08705
560 2.07932
565 1.98228
570 1.84514
575 1.70151
580 1.76938
585 1.685
590 1.69366
595 1.65765
600 1.49202
Ex : 403
200 0.923046
205 0.790584
210 0.856598
215 0.909698
220 0.905694
225 0.89799
230 0.914413
235 0.9879
240 1.06734
245 1.00654
250 0.97665
255 0.986341
260 1.05527
265 1.12335
270 1.1672
275 1.23114
280 1.16124
285 1.34605
290 1.42163
295 1.46491
300 1.50398
305 1.47778
310 1.65598
315 1.94305
320 2.04791
325 2.2258
330 2.35659
335 2.46764
340 2.84674
345 3.34982
350 3.72641
355 4.14217
360 4.82974
365 6.05507
370 7.55245
375 10.03
380 15.1497
385 25.7279
390 796.149
395 9999.9
400 9999.9
405 4963.93
410 604.65
415 90.159
420 24.8535
425 14.1176
430 10.4826
435 8.04269
440 7.35547
445 7.12686
450 8.24404
455 8.6621
460 8.76309
465 7.91419
470 5.95024
475 4.65433
480 4.16077
485 3.88043
490 3.75697
495 3.52792
500 3.33925
505 3.20111
510 2.97113
515 2.86378
520 2.65424
525 2.45694
530 2.58821
535 2.43045
540 2.45195
545 2.23089
550 2.13653
555 2.08775
560 2.01955
565 1.97766
570 1.90955
575 1.7576
580 1.72697
585 1.66386
590 1.63467
595 1.52672
600 1.17405
Ex : 408
200 0.743371
205 0.822307
210 0.805391
215 0.91868
220 0.87335
225 0.836761
230 0.892202
235 0.929369
240 0.994605
245 1.03171
250 0.990888
255 1.02051
260 1.07405
265 1.02977
270 1.07901
275 1.24518
280 1.18387
285 1.27039
290 1.34902
295 1.45814
300 1.57446
305 1.5865
310 1.73993
315 1.76268
320 1.92066
325 2.09593
330 2.26221
335 2.34214
340 2.66776
345 2.99417
350 3.3276
355 3.7358
360 4.12978
365 5.08228
370 6.16433
375 7.8723
380 10.6603
385 15.9968
390 26.7939
395 798.565
400 9999.9
405 9999.9
410 4851.41
415 591.36
420 88.0727
425 24.3386
430 13.8187
435 10.3566
440 8.14883
445 7.19567
450 7.06852
455 7.75282
460 8.82868
465 8.44892
470 7.87327
475 6.14198
480 4.86009
485 4.17027
490 3.99883
495 3.57206
500 3.28946
505 3.16288
510 2.90671
515 2.88001
520 2.63639
525 2.76414
530 2.38382
535 2.42982
540 2.34664
545 2.31338
550 2.21011
555 2.17276
560 2.15597
565 2.06485
570 1.89003
575 1.82955
580 1.74137
585 1.66471
590 1.59445
595 1.65672
600 1.36037
Ex : 413
200 0.920874
205 0.774049
210 0.808519
215 1.02953
220 0.885003
225 0.943269
230 0.873211
235 0.927656
240 0.994731
245 0.91122
250 0.96388
255 0.967017
260 1.08674
265 1.09531
270 1.13937
275 1.05699
280 1.17229
285 1.20812
290 1.1897
295 1.32255
300 1.39812
305 1.45269
310 1.5993
315 1.54753
320 1.73233
325 1.94787
330 2.00098
335 2.18818
340 2.48533
345 2.75408
350 2.9316
355 3.27856
360 3.61909
365 4.24584
370 5.16134
375 6.22756
380 7.95579
385 10.7417
390 16.6551
395 27.6104
400 890.81
405 9999.9
410 9999.9
415 4699.16
420 571.522
425 85.4775
430 23.4867
435 13.7149
440 10.2921
445 8.2189
450 6.90177
455 6.69643
460 7.30015
465 8.50863
470 8.16711
475 7.48744
480 6.29846
485 4.54438
490 3.94016
495 3.57481
500 3.31861
505 3.39764
510 3.04033
515 2.90286
520 2.74944
525 2.63898
530 2.5754
535 2.47
540 2.27732
545 2.271
550 2.1909
555 2.11947
560 1.97984
565 1.83756
570 1.90064
575 1.70059
580 1.74991
585 1.6699
590 1.49047
595 1.5122
600 1.43425
Ex : 418
200 0.846687
205 0.833292
210 0.830389
215 0.815193
220 0.88292
225 0.842236
230 0.855163
235 0.92841
240 0.971057
245 0.971925
250 0.964512
255 0.926667
260 1.01546
265 1.01036
270 1.17244
275 1.16035
280 1.14859
285 1.08959
290 1.25734
295 1.27864
300 1.239
305 1.42903
310 1.55814
315 1.49625
320 1.73758
325 1.81054
330 2.0787
335 2.14768
340 2.31213
345 2.4857
350 2.72777
355 3.04042
360 3.56023
365 3.82288
370 4.59946
375 5.23192
380 6.34633
385 8.40155
390 11.351
395 16.6165
400 27.7541
405 853.203
410 9999.9
415 9999.9
420 4962.25
425 602.286
430 89.7033
435 24.7404
440 14.2456
445 10.6942
450 8.30237
455 7.30942
460 6.85672
465 6.94185
470 7.80818
475 7.64818
480 7.28142
485 6.63999
490 4.82005
495 4.07498
500 3.53022
505 3.39159
510 3.18637
515 2.91999
520 2.76441
525 2.6088
530 2.49519
535 2.55776
540 2.51288
545 2.33294
550 2.1761
555 2.15431
560 2.06633
565 1.9708
570 1.8384
575 1.82875
580 1.64943
585 1.53768
590 1.56593
595 1.41098
600 1.30134
Ex : 423
200 0.876938
205 0.792767
210 0.903278
215 0.839187
220 0.923644
225 0.786443
230 0.862547
235 0.804722
240 0.84708
245 0.865967
250 0.967619
255 0.918784
260 0.939002
265 0.974178
270 1.11663
275 1.1941
280 1.19214
285 1.14196
290 1.12647
295 1.24589
300 1.28781
305 1.37712
310 1.4645
315 1.45741
320 1.61235
325 1.63161
330 1.84364
335 1.98307
340 2.1343
345 2.24121
350 2.59982
355 2.8629
360 3.1401
365 3.49649
370 3.94029
375 4.37176
380 5.18716
385 6.67273
390 8.56491
395 11.9354
400 17.2381
405 28.0175
410 874.042
415 9999.9
420 9999.9
425 4674.18
430 568.75
435 85.7681
440 24.0427
445 14.0893
450 10.6342
455 8.13786
460 7.19588
465 6.65336
470 6.50186
475 7.13408
480 7.4512
485 6.81049
490 6.54826
495 5.18702
500 3.89006
505 3.42549
510 3.16044
515 2.81839
520 2.71845
525 2.70846
530 2.50436
535 2.36536
540 2.30015
545 2.26137
550 2.24325
555 2.18829
560 2.05954
565 1.91553
570 1.85178
575 1.78884
580 1.71778
585 1.55877
590 1.5749
595 1.48064
600 1.06667
Ex : 428
200 0.834021
205 0.783566
210 0.856421
215 0.870023
220 0.844431
225 0.867598
230 0.817071
235 0.872052
240 0.858337
245 0.864272
250 0.847579
255 0.969565
260 0.98416
265 1.00161
270 1.09395
275 1.09517
280 1.1493
285 1.22928
290 1.09785
295 1.1424
300 1.1438
305 1.23209
310 1.3531
315 1.44579
320 1.60607
325 1.71758
330 1.80671
335 1.98322
340 2.05198
345 2.24587
350 2.31234
355 2.59394
360 2.69277
365 2.97734
370 3.4422
375 3.95727
380 4.55268
385 5.55951
390 6.92637
395 8.97762
400 11.8865
405 17.5645
410 28.1641
415 952.403
420 9999.9
425 9999.9
430 4927.46
435 598.116
440 89.7853
445 25.0696
450 14.1135
455 10.9111
460 8.54777
465 7.65389
470 6.96307
475 6.09876
480 6.71224
485 7.15769
490 6.50541
495 6.28142
500 5.42742
505 4.23809
510 3.34393
515 3.28858
520 2.9544
525 2.74847
530 2.68383
535 2.49027
540 2.43777
545 2.21876
550 2.23467
555 2.07512
560 2.0984
565 2.1301
570 1.78697
575 1.67959
580 1.70842
585 1.34267
590 1.57793
595 1.55667
600 1.39567
Ex : 433
200 0.841353
205 0.729811
210 0.789658
215 0.771098
220 0.821916
225 0.860495
230 0.818871
235 0.905897
240 0.849589
245 0.896558
250 0.895174
255 0.916593
260 0.851254
265 0.973476
270 1.00613
275 1.01901
280 1.21404
285 1.21986
290 1.2097
295 1.26269
300 1.29034
305 1.26554
310 1.42896
315 1.35832
320 1.62082
325 1.63247
330 1.71253
335 1.86905
340 1.99169
345 2.02376
350 2.27586
355 2.37664
360 2.66065
365 2.88376
370 3.1438
375 3.5529
380 4.03101
385 4.77844
390 5.70197
395 7.01269
400 8.95001
405 12.2662
410 17.9625
415 29.4807
420 1039.02
425 9999.9
430 9999.9
435 4613.14
440 560.942
445 85.8993
450 24.7028
455 14.4272
460 11.2427
465 9.0092
470 7.35181
475 6.33177
480 5.98507
485 5.94908
490 6.58287
495 6.28409
500 6.02313
505 5.46503
510 4.12756
515 3.26999
520 3.05693
525 2.75906
530 2.81167
535 2.52213
540 2.51344
545 2.31002
550 2.36175
555 2.24612
560 1.97371
565 2.01859
570 1.9661
575 1.79652
580 1.61852
585 1.54101
590 1.41059
595 1.47621
600 1.83305
Ex : 438
200 0.785801
205 0.875708
210 0.787578
215 0.802332
220 0.791565
225 0.858096
230 0.870796
235 0.855119
240 0.850576
245 0.849732
250 0.972322
255 0.943395
260 0.927811
265 1.11011
270 0.964092
275 1.00109
280 1.15582
285 1.08923
290 1.21125
295 1.22248
300 1.2874
305 1.29832
310 1.35843
315 1.35262
320 1.40657
325 1.60471
330 1.57608
335 1.76838
340 2.01818
345 1.98359
350 2.25686
355 2.34694
360 2.57889
365 2.81375
370 3.0022
375 3.35017
380 3.56262
385 4.28208
390 5.03702
395 5.96749
400 7.12203
405 9.14826
410 12.2357
415 18.2689
420 29.4119
425 983.666
430 9999.9
435 9999.9
440 4742.31
445 577.078
450 87.8667
455 25.2527
460 14.9643
465 11.6428
470 8.5537
475 7.07922
480 6.20443
485 5.78363
490 5.66073
495 6.36319
500 6.22307
505 6.1094
510 5.4195
515 4.26746
520 3.4782
525 3.01923
530 2.8322
535 2.68482
540 2.38798
545 2.26863
550 2.20322
555 2.17014
560 2.15334
565 1.87871
570 1.92888
575 1.71741
580 1.61268
585 1.62211
590 1.45387
595 1.48961
600 1.42727
Ex : 443
200 0.742436
205 0.766182
210 0.787863
215 0.815301
220 0.864813
225 0.851577
230 0.886396
235 0.833501
240 0.849815
245 0.797708
250 0.9009
255 0.865699
260 0.992477
265 0.981093
270 1.02156
275 1.04799
280 1.02089
285 1.00444
290 1.17227
295 1.23143
300 1.23824
305 1.2196
310 1.3818
315 1.41859
320 1.5146
325 1.46652
330 1.57334
335 1.68209
340 1.77995
345 1.90512
350 2.14563
355 2.12513
360 2.2217
365 2.49022
370 2.81454
375 3.19096
380 3.34952
385 3.74822
390 4.21834
395 5.26189
400 5.82006
405 7.29465
410 9.30762
415 12.2452
420 17.8139
425 29.3029
430 1074.6
435 9999.9
440 9999.9
445 4610.4
450 561.445
455 86.0864
460 25.4421
465 15.1121
470 11.0596
475 8.02891
480 6.78918
485 6.07553
490 5.70611
495 5.60278
500 5.71567
505 6.11862
510 5.58874
515 5.34396
520 4.5015
525 3.5185
530 2.91982
535 2.69987
540 2.55379
545 2.52668
550 2.35412
555 2.27048
560 2.05034
565 2.01545
570 1.85968
575 1.75068
580 1.75099
585 1.52158
590 1.54948
595 1.58411
600 1.74445
Ex : 448
200 0.828843
205 0.834728
210 0.862402
215 0.891292
220 0.799294
225 0.881922
230 0.768084
235 0.871543
240 0.824122
245 0.900185
250 0.844956
255 0.888741
260 0.989388
265 0.962136
270 0.866505
275 1.02191
280 1.02511
285 1.08033
290 1.06586
295 1.14155
300 1.28923
305 1.26839
310 1.37211
315 1.23674
320 1.42216
325 1.48611
330 1.53268
335 1.68763
340 1.73837
345 1.88813
350 2.05558
355 2.13464
360 2.24813
365 2.36068
370 2.62309
375 2.73997
380 3.21283
385 3.56697
390 3.83398
395 4.41841
400 4.96849
405 6.05289
410 7.25872
415 9.46469
420 12.3035
425 17.9086
430 28.9948
435 1083.63
440 9999.9
445 9999.9
450 4716.48
455 574.188
460 88.4957
465 26.4734
470 15.0847
475 10.4569
480 8.02763
485 6.69947
490 6.16959
495 5.70301
500 5.26396
505 5.24321
510 5.8537
515 5.44022
520 5.11814
525 4.59012
530 3.83952
535 2.86349
540 2.69288
545 2.60211
550 2.36594
555 2.26221
560 2.14818
565 2.08245
570 1.97483
575 1.79314
580 1.62653
585 1.44437
590 1.50319
595 1.4706
600 1.17352
Ex : 453
200 0.734247
205 0.746165
210 0.832868
215 0.816773
220 0.938453
225 0.879351
230 0.896555
235 0.987355
240 0.864424
245 0.878027
250 0.852302
255 0.818706
260 0.917266
265 0.882114
270 0.996188
275 1.04573
280 1.03206
285 1.02229
290 1.12868
295 1.15406
300 1.23265
305 1.29928
310 1.31818
315 1.36056
320 1.38895
325 1.47854
330 1.48068
335 1.54348
340 1.71743
345 1.75163
350 1.95622
355 2.09337
360 2.06707
365 2.29623
370 2.54921
375 2.81535
380 2.85428
385 3.22528
390 3.51181
395 4.11378
400 4.50221
405 5.08823
410 5.97002
415 7.29379
420 8.98295
425 11.8838
430 17.6704
435 29.0175
440 1132.4
445 9999.9
450 9999.9
455 4551
460 555.615
465 86.8692
470 25.4567
475 14.1619
480 10.4338
485 7.71267
490 6.5161
495 5.82629
500 5.33254
505 4.93519
510 4.93504
515 5.44515
520 5.13259
525 4.91695
530 4.35154
535 3.80345
540 3.1076
545 2.5092
550 2.35599
555 2.39408
560 2.26479
565 2.15777
570 2.03463
575 1.83236
580 1.62306
585 1.52994
590 1.49989
595 1.38071
600 1.08691
Ex : 458
200 0.8538
205 0.754789
210 0.784855
215 0.804108
220 0.981012
225 0.933667
230 0.920025
235 0.850203
240 0.907309
245 0.8611
250 0.947138
255 1.0025
260 0.880913
265 0.915459
270 0.968665
275 0.917469
280 1.05421
285 0.995855
290 1.12905
295 1.26332
300 1.31895
305 1.37839
310 1.35333
315 1.33487
320 1.36948
325 1.39152
330 1.60042
335 1.70402
340 1.79063
345 1.89074
350 1.91656
355 1.90094
360 2.09013
365 2.18046
370 2.44789
375 2.57021
380 2.84393
385 3.09634
390 3.38759
395 3.66392
400 3.96368
405 4.71214
410 5.19886
415 6.09124
420 7.57569
425 9.78628
430 12.9315
435 18.196
440 30.1017
445 1237.2
450 9999.9
455 9999.9
460 4820.93
465 589.906
470 90.6731
475 25.3267
480 14.4429
485 10.3615
490 7.83783
495 6.39171
500 5.68489
505 5.52311
510 5.10381
515 5.01574
520 5.22313
525 4.95702
530 4.51563
535 4.44066
540 4.19978
545 3.45075
550 2.89906
555 2.56894
560 2.27653
565 2.07973
570 2.08352
575 1.94069
580 1.74303
585 1.75202
590 1.69779
595 1.52684
600 1.28648
Ex : 463
200 0.846303
205 0.838306
210 0.822408
215 0.819304
220 0.925399
225 0.865199
230 0.855327
235 0.913769
240 0.921109
245 0.912747
250 0.928325
255 0.918914
260 0.902698
265 0.960072
270 1.0918
275 1.02861
280 1.0322
285 1.09315
290 1.1609
295 1.15321
300 1.23065
305 1.25616
310 1.29583
315 1.43605
320 1.37774
325 1.35218
330 1.47903
335 1.52743
340 1.56045
345 1.76249
350 1.83513
355 2.0756
360 2.18664
365 2.19362
370 2.33867
375 2.44304
380 2.82054
385 2.9422
390 3.24567
395 3.40683
400 3.6326
405 4.1979
410 4.5397
415 5.16679
420 6.10969
425 7.07283
430 9.37821
435 12.5803
440 18.2202
445 30.7621
450 1222.39
455 9999.9
460 9999.9
465 4971.03
470 605.273
475 90.1793
480 24.9039
485 13.5616
490 10.2514
495 7.50106
500 6.16472
505 5.58266
510 5.06792
515 4.90632
520 4.31033
525 4.6655
530 4.93953
535 4.42596
540 4.38468
545 4.07794
550 3.46972
555 2.56601
560 2.50099
565 2.18568
570 2.06051
575 2.00931
580 1.95248
585 1.69257
590 1.60853
595 1.51018
600 1.55201
Ex : 468
200 0.840584
205 0.867409
210 0.891323
215 0.862141
220 0.893912
225 0.962722
230 0.985114
235 0.976376
240 0.936211
245 0.917513
250 0.88382
255 0.921116
260 1.0191
265 1.04016
270 0.961937
275 1.03341
280 1.04962
285 1.09714
290 1.11177
295 1.16544
300 1.16012
305 1.26765
310 1.32297
315 1.3725
320 1.46106
325 1.46571
330 1.48769
335 1.61958
340 1.64065
345 1.72727
350 1.90604
355 1.98855
360 1.94848
365 2.08761
370 2.25401
375 2.32622
380 2.62931
385 2.73612
390 2.93334
395 3.34394
400 3.5252
405 3.84141
410 4.08864
415 4.6535
420 5.18938
425 5.86097
430 7.15797
435 9.18038
440 12.1813
445 18.4018
450 29.9739
455 1330.52
460 9999.9
465 9999.9
470 5193.32
475 626.696
480 91.7677
485 24.4466
490 13.3768
495 9.53638
500 7.2015
505 5.94186
510 5.46005
515 5.08959
520 4.84207
525 4.46693
530 4.55467
535 4.46131
540 4.47873
545 4.11713
550 3.87677
555 3.608
560 2.82223
565 2.2951
570 2.22525
575 2.08242
580 1.98476
585 1.7657
590 1.64252
595 1.55991
600 1.17168
Ex : 473
200 0.92951
205 0.912371
210 0.871992
215 0.903626
220 0.877589
225 0.955178
230 1.2139
235 1.08168
240 0.944208
245 0.957308
250 0.9315
255 1.02899
260 1.0595
265 1.00787
270 1.02405
275 0.999631
280 1.08331
285 1.07656
290 1.09683
295 1.16836
300 1.13959
305 1.24723
310 1.22056
315 1.33543
320 1.4068
325 1.48366
330 1.58052
335 1.48047
340 1.61938
345 1.79941
350 1.79442
355 1.84837
360 1.90988
365 2.00789
370 2.19616
375 2.42535
380 2.54101
385 2.7655
390 2.97043
395 3.13824
400 3.40988
405 3.43098
410 3.91935
415 4.06112
420 4.62633
425 5.25295
430 6.03454
435 7.18216
440 9.54388
445 13.2364
450 19.4482
455 31.949
460 1400.18
465 9999.9
470 9999.9
475 4969.94
480 601.139
485 88.6586
490 23.836
495 13.2334
500 9.70473
505 7.18
510 5.95977
515 5.23097
520 5.21587
525 4.71244
530 4.36504
535 4.21099
540 4.37416
545 4.38915
550 3.9551
555 3.70006
560 3.6276
565 2.89204
570 2.35551
575 2.10393
580 2.00628
585 1.79243
590 1.72452
595 1.6936
600 1.04413
Ex : 478
200 0.82484
205 0.89628
210 0.881716
215 0.898993
220 0.880362
225 0.87004
230 1.11123
235 1.60309
240 1.02896
245 0.919489
250 0.929401
255 0.936805
260 0.948692
265 1.02494
270 1.04576
275 1.03554
280 1.14679
285 1.02051
290 1.11855
295 1.13892
300 1.16387
305 1.13209
310 1.25243
315 1.36335
320 1.45231
325 1.49297
330 1.51762
335 1.53441
340 1.54508
345 1.76085
350 1.79162
355 1.96265
360 1.89298
365 2.05778
370 2.18993
375 2.32798
380 2.50206
385 2.69307
390 2.93545
395 3.16986
400 3.32167
405 3.53591
410 4.07463
415 4.38624
420 4.48493
425 4.94627
430 5.72705
435 6.4397
440 7.97493
445 10.7298
450 14.5024
455 21.7751
460 37.4359
465 1597.92
470 9999.9
475 9999.9
480 5026.14
485 608.934
490 91.5589
495 25.5153
500 14.166
505 10.01
510 7.67493
515 6.35622
520 5.54864
525 5.0437
530 5.00602
535 4.30326
540 4.12318
545 4.15054
550 4.37199
555 3.95979
560 3.58327
565 3.56016
570 2.99274
575 2.37757
580 1.9571
585 1.90338
590 1.7715
595 1.82749
600 1.50444
Ex : 483
200 0.819394
205 0.899103
210 0.847261
215 0.916685
220 0.86443
225 0.909625
230 1.09718
235 1.80595
240 1.3252
245 1.01807
250 0.902299
255 1.02079
260 0.939693
265 1.05009
270 0.975183
275 1.057
280 0.995645
285 1.11178
290 1.2559
295 1.13269
300 1.28897
305 1.29365
310 1.21654
315 1.39109
320 1.48184
325 1.53212
330 1.48658
335 1.6741
340 1.70273
345 1.75312
350 1.72484
355 1.80001
360 1.82473
365 2.03028
370 2.11585
375 2.2724
380 2.25987
385 2.68391
390 2.78978
395 3.07598
400 3.09084
405 3.27989
410 3.68216
415 3.89603
420 4.38124
425 4.55029
430 5.35119
435 6.11504
440 6.71212
445 8.68071
450 11.4916
455 15.0675
460 23.1146
465 39.112
470 1330.11
475 9999.9
480 9999.9
485 5389.24
490 651.472
495 96.1103
500 25.4767
505 14.0634
510 10.2051
515 7.56039
520 6.3934
525 5.68323
530 5.45521
535 5.00156
540 4.50132
545 4.09447
550 4.01496
555 4.21801
560 3.82059
565 3.58535
570 3.31257
575 2.88035
580 2.4653
585 2.14305
590 1.99288
595 1.87564
600 2.03633
Ex : 488
200 0.860496
205 0.902904
210 0.936765
215 0.84418
220 0.869069
225 0.946084
230 0.980534
235 1.41959
240 2.01513
245 1.14413
250 1.03376
255 1.07042
260 1.06967
265 0.901557
270 0.983829
275 1.0545
280 1.00576
285 1.03719
290 1.11247
295 1.25663
300 1.15876
305 1.24934
310 1.36014
315 1.36343
320 1.41012
325 1.55901
330 1.52802
335 1.66563
340 1.5757
345 1.72308
350 1.6227
355 1.84263
360 2.0832
365 2.09961
370 2.24946
375 2.16814
380 2.44384
385 2.46039
390 2.82858
395 3.05592
400 3.0613
405 3.5069
410 3.5725
415 3.954
420 4.26386
425 4.50401
430 4.70979
435 5.48929
440 6.27701
445 7.68218
450 9.61341
455 12.145
460 16.7763
465 25.7771
470 39.9016
475 1588.33
480 9999.9
485 9999.9
490 5158.09
495 625.823
500 93.201
505 26.2051
510 14.8104
515 10.6176
520 7.72012
525 6.52107
530 5.84631
535 5.34341
540 5.12018
545 4.61364
550 4.39233
555 4.14277
560 4.01537
565 3.92948
570 3.35679
575 3.13053
580 2.81989
585 2.43055
590 2.1084
595 2.11212
600 1.52488
Ex : 493
200 0.843312
205 0.940557
210 0.959816
215 0.875808
220 0.847511
225 0.90776
230 1.0364
235 0.996388
240 2.17144
245 1.73725
250 1.11775
255 1.1173
260 1.0028
265 0.98238
270 1.02395
275 1.04746
280 1.13661
285 1.22847
290 1.1314
295 1.1626
300 1.15234
305 1.24248
310 1.2094
315 1.32963
320 1.31963
325 1.44808
330 1.39435
335 1.57326
340 1.69602
345 1.77421
350 1.87975
355 1.71388
360 1.86038
365 1.76449
370 2.02624
375 2.20156
380 2.3867
385 2.56811
390 2.6746
395 2.92766
400 3.17423
405 3.16481
410 3.61991
415 3.74166
420 3.84624
425 4.09629
430 4.49342
435 4.93827
440 5.64457
445 6.43145
450 7.70957
455 9.57697
460 12.7327
465 17.6218
470 24.9288
475 38.3189
480 1524.19
485 9999.9
490 9999.9
495 5290.6
500 640.092
505 95.4679
510 25.9861
515 14.8049
520 10.4119
525 7.72959
530 6.54885
535 5.36777
540 5.41716
545 5.34186
550 4.81646
555 4.38423
560 3.79587
565 3.83447
570 3.82813
575 3.297
580 2.75477
585 2.80198
590 2.43951
595 2.11461
600 0.662046
Ex : 498
200 0.990828
205 0.89848
210 0.913308
215 0.924034
220 0.878247
225 0.980798
230 0.998468
235 0.991889
240 1.66667
245 2.70218
250 1.25799
255 1.15737
260 1.00948
265 1.05986
270 1.14733
275 1.0647
280 1.02786
285 1.17139
290 1.13293
295 1.09135
300 1.08008
305 1.25198
310 1.30127
315 1.28576
320 1.3122
325 1.60647
330 1.42037
335 1.59819
340 1.58477
345 1.79141
350 1.81549
355 1.86426
360 1.81806
365 1.93062
370 2.14998
375 2.2036
380 2.2279
385 2.44141
390 2.61692
395 2.86223
400 3.08737
405 3.20438
410 3.45026
415 3.72806
420 3.9912
425 4.31612
430 4.45941
435 4.64556
440 5.29371
445 6.00826
450 7.1149
455 8.2279
460 10.6796
465 14.3077
470 18.6968
475 25.6779
480 41.2448
485 1879.53
490 9999.9
495 9999.9
500 5253.1
505 637.372
510 95.8542
515 26.4161
520 15.1434
525 11.0975
530 8.0463
535 6.54872
540 5.78563
545 5.44589
550 5.36115
555 4.89963
560 4.29445
565 4.01305
570 3.52723
575 3.56511
580 3.35117
585 2.8034
590 2.67561
595 2.43887
600 3.07093
Ex : 503
200 0.840387
205 1.00883
210 1.03474
215 0.968437
220 0.983958
225 0.956531
230 0.965956
235 1.04184
240 1.05214
245 2.94987
250 1.94136
255 1.08228
260 1.02634
265 1.18138
270 1.12215
275 0.965008
280 1.2066
285 1.25545
290 1.15168
295 1.23048
300 1.25434
305 1.24788
310 1.34481
315 1.30209
320 1.29711
325 1.35318
330 1.56987
335 1.62302
340 1.77173
345 1.8868
350 1.79225
355 1.72039
360 1.92985
365 1.97878
370 2.1142
375 2.24578
380 2.40017
385 2.35671
390 2.59418
395 2.78531
400 2.84866
405 3.20949
410 3.51363
415 3.41429
420 3.77822
425 3.69069
430 4.09959
435 4.45439
440 5.0219
445 5.48267
450 6.37421
455 7.08474
460 8.80842
465 11.3742
470 14.1222
475 18.3858
480 26.344
485 41.7889
490 1690.28
495 9999.9
500 9999.9
505 5416.39
510 656.895
515 99.027
520 27.392
525 15.6789
530 10.6925
535 8.14262
540 6.79627
545 6.03716
550 5.74845
555 5.15478
560 5.0357
565 4.27649
570 3.8554
575 3.46333
580 3.29403
585 2.9718
590 2.78551
595 2.38998
600 3.2212
Ex : 508
200 0.966071
205 0.860732
210 0.926379
215 0.898366
220 0.992491
225 1.02661
230 0.914834
235 0.953712
240 0.948495
245 1.93965
250 3.97267
255 1.68791
260 1.02455
265 1.05232
270 1.12917
275 1.13138
280 1.12405
285 1.0078
290 1.1949
295 1.13871
300 1.15654
305 1.29051
310 1.25349
315 1.28403
320 1.43705
325 1.42641
330 1.45065
335 1.33986
340 1.51738
345 1.55333
350 1.82446
355 1.76178
360 1.7577
365 1.94354
370 2.08258
375 2.17719
380 2.17475
385 2.2056
390 2.5915
395 2.68532
400 2.84513
405 2.90731
410 3.21803
415 3.24531
420 3.40999
425 3.61196
430 3.96154
435 4.17326
440 4.61769
445 5.13413
450 5.73817
455 6.45633
460 7.7636
465 9.15387
470 11.0922
475 13.5589
480 18.399
485 25.9588
490 42.1999
495 1751.71
500 9999.9
505 9999.9
510 5772.96
515 697.455
520 102.576
525 27.5412
530 15.1446
535 10.6342
540 7.89324
545 6.64048
550 6.25152
555 5.58751
560 5.1015
565 4.74291
570 4.20303
575 3.63254
580 3.17772
585 3.06254
590 2.8226
595 2.71541
600 2.48525
Ex : 513
200 0.825271
205 0.867811
210 0.942566
215 0.928045
220 0.830744
225 0.954362
230 1.05662
235 0.970168
240 0.996137
245 1.09969
250 7.35651
255 5.6157
260 1.55875
265 1.20264
270 1.04129
275 1.13497
280 1.28114
285 1.16414
290 1.15787
295 1.05979
300 1.08181
305 1.26354
310 1.22578
315 1.41208
320 1.35647
325 1.42295
330 1.3858
335 1.54347
340 1.64682
345 1.61317
350 1.72743
355 1.7432
360 1.76719
365 2.01331
370 2.00788
375 1.93951
380 2.03185
385 2.37061
390 2.34912
395 2.39507
400 2.78616
405 2.78836
410 2.95445
415 3.33086
420 3.40807
425 3.63086
430 3.83476
435 4.0353
440 4.32203
445 4.86628
450 5.44816
455 5.96775
460 6.65654
465 8.07704
470 9.13989
475 10.4654
480 13.5895
485 18.0947
490 25.8239
495 40.187
500 1619.15
505 9999.9
510 9999.9
515 5975.6
520 721.286
525 105.55
530 27.8105
535 15.0165
540 10.6067
545 8.10614
550 6.70278
555 5.54263
560 5.67787
565 5.1083
570 4.51837
575 4.03134
580 3.62644
585 3.11971
590 2.92967
595 2.59722
600 3.12984
Ex : 518
200 0.898145
205 1.04961
210 0.879115
215 0.868045
220 0.890797
225 0.926942
230 1.04277
235 0.947592
240 0.933651
245 1.05261
250 5.46903
255 17.4004
260 4.70498
265 1.41937
270 1.23384
275 1.12223
280 1.22082
285 1.16268
290 1.20293
295 1.14478
300 1.25468
305 1.13872
310 1.21044
315 1.17841
320 1.28897
325 1.22968
330 1.47458
335 1.43803
340 1.54266
345 1.58006
350 1.64571
355 1.67093
360 1.82196
365 1.92978
370 1.83104
375 1.94698
380 2.04616
385 2.14818
390 2.23589
395 2.48006
400 2.69786
405 2.67544
410 2.91983
415 3.02892
420 3.29953
425 3.38653
430 3.40384
435 3.72357
440 4.304
445 4.51811
450 5.105
455 5.37519
460 6.21523
465 7.31431
470 7.87905
475 8.65357
480 11.0034
485 13.6652
490 18.2403
495 25.3453
500 39.3583
505 1637.65
510 9999.9
515 9999.9
520 5858.5
525 707.492
530 103.2
535 27.2371
540 15.1106
545 10.5192
550 8.01849
555 6.54051
560 5.69641
565 5.34099
570 4.47443
575 4.4804
580 3.97951
585 3.34645
590 3.03933
595 2.75597
600 3.4013
Ex : 523
200 0.844315
205 0.850804
210 0.887662
215 0.908394
220 0.817439
225 1.01218
230 0.870645
235 0.967215
240 0.935848
245 0.969701
250 1.69741
255 23.4522
260 17.3678
265 3.04724
270 1.38117
275 1.08605
280 1.10795
285 1.20165
290 1.13685
295 1.14087
300 1.06641
305 1.20092
310 1.30866
315 1.27706
320 1.3182
325 1.33485
330 1.32312
335 1.40494
340 1.34135
345 1.5899
350 1.66818
355 1.58894
360 1.6746
365 1.73647
370 1.83054
375 1.94284
380 2.02975
385 2.16648
390 2.14049
395 2.48166
400 2.54311
405 2.65719
410 2.57327
415 2.76173
420 2.99698
425 3.1113
430 3.31986
435 3.68278
440 4.05471
445 3.85356
450 4.54134
455 4.95393
460 5.69067
465 6.54731
470 7.20658
475 7.6017
480 8.7528
485 10.5712
490 13.8105
495 17.369
500 24.2583
505 38.3135
510 1441.49
515 9999.9
520 9999.9
525 6043.31
530 728.21
535 105.406
540 27.1313
545 14.5672
550 10.4741
555 7.5353
560 6.24938
565 5.86324
570 5.34724
575 4.5729
580 4.20586
585 3.60766
590 3.09689
595 2.83933
600 1.99101
Ex : 528
200 1.12778
205 0.858831
210 0.791255
215 0.869693
220 0.957387
225 0.96695
230 0.870429
235 0.918634
240 0.9149
245 0.996769
250 0.984099
255 13.3626
260 41.4975
265 9.8371
270 2.19125
275 1.24338
280 1.12233
285 1.18191
290 1.04683
295 1.10353
300 1.16227
305 1.15713
310 1.24555
315 1.27776
320 1.25423
325 1.47214
330 1.54253
335 1.53275
340 1.42918
345 1.52481
350 1.54996
355 1.57853
360 1.70735
365 1.75931
370 1.87097
375 1.8377
380 1.96898
385 2.01239
390 2.13359
395 2.09792
400 2.33058
405 2.45308
410 2.47632
415 3.00611
420 3.04384
425 2.98924
430 3.16415
435 3.38519
440 3.61627
445 3.83733
450 4.55074
455 4.67324
460 5.26735
465 5.80592
470 6.02103
475 7.00019
480 7.73968
485 8.44929
490 10.3252
495 12.837
500 17.2379
505 24.0037
510 37.2854
515 1350.03
520 9999.9
525 9999.9
530 5839.57
535 704.984
540 102.237
545 26.7797
550 14.4844
555 9.95592
560 7.53106
565 6.13073
570 5.0856
575 4.92258
580 4.55463
585 3.87935
590 3.2993
595 3.05652
600 2.19444
Ex : 533
200 0.854868
205 0.818092
210 1.00996
215 0.811716
220 0.905592
225 0.839237
230 0.826333
235 0.858527
240 0.853956
245 0.953458
250 0.942377
255 2.88146
260 45.5483
265 34.1713
270 5.33789
275 1.57211
280 1.17506
285 1.16311
290 1.14081
295 1.16329
300 1.26924
305 1.28372
310 1.17646
315 1.2664
320 1.37819
325 1.36025
330 1.40765
335 1.47449
340 1.37703
345 1.50311
350 1.52598
355 1.44772
360 1.69682
365 1.74929
370 1.79257
375 1.99676
380 1.96942
385 2.15533
390 2.11775
395 2.15262
400 2.20352
405 2.14054
410 2.48874
415 2.58939
420 2.58636
425 2.78261
430 2.99661
435 3.42682
440 3.39394
445 3.92241
450 3.78911
455 4.31543
460 4.84149
465 5.56434
470 5.60694
475 5.99053
480 6.85293
485 7.18563
490 8.45513
495 10.3116
500 12.96
505 16.8919
510 24.0192
515 36.9826
520 1337.76
525 9999.9
530 9999.9
535 6009.27
540 723.755
545 104.309
550 26.7305
555 14.5176
560 10.21
565 7.30301
570 5.73324
575 5.23229
580 5.02783
585 3.9808
590 3.59707
595 3.34283
600 3.40073
Ex : 538
200 1.00226
205 1.06029
210 0.886035
215 0.92216
220 0.903392
225 0.969452
230 0.99472
235 0.969463
240 0.92932
245 0.951502
250 0.99941
255 1.14585
260 22.182
265 76.9795
270 19.4365
275 3.25752
280 1.54427
285 1.33158
290 1.31637
295 1.5223
300 1.29555
305 1.40545
310 1.17663
315 1.25575
320 1.62084
325 1.25412
330 1.26562
335 1.38114
340 1.37947
345 1.50508
350 1.6337
355 1.61441
360 1.51717
365 1.62379
370 1.77896
375 1.75506
380 1.94342
385 2.09319
390 2.02238
395 2.30431
400 2.07392
405 2.26946
410 2.49561
415 2.7002
420 2.63852
425 2.77406
430 2.92715
435 3.0539
440 3.50056
445 3.4375
450 3.86549
455 4.28644
460 4.47206
465 4.91639
470 5.51362
475 5.3644
480 5.8973
485 6.40608
490 7.568
495 8.57187
500 9.75508
505 12.315
510 16.5382
515 23.1921
520 35.4527
525 1151.23
530 9999.9
535 9999.9
540 6249.24
545 754.41
550 108.167
555 26.9971
560 13.9302
565 9.71506
570 6.80667
575 5.58001
580 4.79425
585 4.46593
590 4.08442
595 3.70086
600 2.57066
Ex : 543
200 0.872881
205 0.917595
210 0.932752
215 0.82431
220 0.952166
225 0.92488
230 0.912875
235 0.872957
240 0.90047
245 1.09882
250 1.10616
255 1.04377
260 3.83651
265 78.3281
270 64.7732
275 8.9905
280 2.01681
285 1.2715
290 1.09587
295 1.35932
300 1.29964
305 1.25341
310 1.25162
315 1.347
320 1.42198
325 1.4092
330 1.44666
335 1.45551
340 1.41689
345 1.49459
350 1.59195
355 1.57096
360 1.63713
365 1.85195
370 1.68486
375 1.62922
380 1.84271
385 1.98532
390 1.93766
395 2.18637
400 2.1128
405 2.18004
410 2.24419
415 2.12579
420 2.45966
425 2.63388
430 2.89584
435 3.10693
440 3.34674
445 3.3938
450 4.05755
455 3.85092
460 4.42906
465 4.75593
470 5.01181
475 5.05493
480 5.66067
485 6.0964
490 6.66761
495 7.5026
500 7.80724
505 9.81106
510 12.4129
515 15.8153
520 22.8023
525 35.1667
530 1092.03
535 9999.9
540 9999.9
545 6383.03
550 771.157
555 109.111
560 26.9226
565 13.0589
570 9.36653
575 6.51435
580 5.23659
585 4.64971
590 4.60817
595 4.08232
600 3.86167
Ex : 548
200 0.870743
205 0.885161
210 1.10395
215 0.873285
220 0.856775
225 0.912459
230 1.09944
235 1.04072
240 0.928745
245 1.07304
250 1.12575
255 1.05246
260 1.26501
265 34.8431
270 119.42
275 28.8679
280 4.38177
285 1.59821
290 1.24077
295 1.39654
300 1.46133
305 1.36301
310 1.29021
315 1.29866
320 1.33576
325 1.35635
330 1.41757
335 1.54583
340 1.43331
345 1.52205
350 1.60056
355 1.58456
360 1.66816
365 1.58359
370 1.74002
375 1.73032
380 1.73972
385 1.72372
390 1.7707
395 1.98779
400 2.07893
405 2.1876
410 2.24609
415 2.1494
420 2.61432
425 2.57257
430 2.79282
435 3.17645
440 3.18834
445 3.21039
450 3.47984
455 3.83871
460 4.16378
465 4.43222
470 4.70478
475 4.79287
480 5.34614
485 5.47569
490 6.20688
495 6.14479
500 7.17153
505 7.6041
510 9.16873
515 11.5686
520 15.4844
525 22.0079
530 33.6283
535 1127.64
540 9999.9
545 9999.9
550 6354.72
555 764.756
560 107.752
565 26.2391
570 12.8832
575 8.97651
580 6.26142
585 4.9462
590 4.34147
595 4.05229
600 2.87806
Ex : 553
200 1.04207
205 1.05149
210 0.94787
215 0.879923
220 0.968661
225 0.841811
230 0.965501
235 0.977528
240 1.01967
245 1.10841
250 1.06694
255 1.14959
260 1.13148
265 4.59807
270 111.702
275 93.4124
280 12.9429
285 2.75918
290 1.47554
295 1.48523
300 1.44944
305 1.30834
310 1.25802
315 1.32069
320 1.4216
325 1.47577
330 1.63804
335 1.51994
340 1.62242
345 1.62225
350 1.54094
355 1.59597
360 1.53855
365 1.52913
370 1.64572
375 1.6874
380 1.70122
385 1.9257
390 1.79559
395 2.01235
400 2.06066
405 2.05931
410 2.31586
415 2.07042
420 2.18176
425 2.41202
430 2.38175
435 2.70558
440 3.02461
445 3.15328
450 3.28814
455 3.29446
460 3.93818
465 4.34219
470 4.59216
475 4.49288
480 4.86072
485 4.93288
490 5.07128
495 5.59109
500 6.17285
505 7.07912
510 8.2761
515 9.76698
520 11.6442
525 15.2401
530 21.5051
535 33.7937
540 1004.89
545 9999.9
550 9999.9
555 6579.68
560 795.482
565 111.176
570 25.8387
575 12.4535
580 8.5169
585 5.95568
590 4.5821
595 4.12165
600 4.44149
Ex : 558
200 1.089
205 0.970271
210 0.846795
215 0.899386
220 0.88211
225 0.956363
230 0.91971
235 1.01698
240 1.09508
245 1.0161
250 0.978341
255 0.90619
260 1.17975
265 1.2784
270 44.3564
275 170.457
280 42.2158
285 6.18353
290 1.91065
295 1.44061
300 1.5564
305 1.58234
310 1.2632
315 1.40316
320 1.33022
325 1.48131
330 1.40401
335 1.52416
340 1.40721
345 1.4263
350 1.61762
355 1.7647
360 1.73872
365 1.70815
370 1.80265
375 1.63109
380 1.8179
385 2.00082
390 2.02077
395 2.19556
400 2.10632
405 2.06856
410 2.07135
415 2.27337
420 2.13066
425 2.41898
430 2.42582
435 2.80651
440 2.77027
445 3.20511
450 3.35003
455 3.36607
460 3.92358
465 4.23308
470 4.39094
475 4.52734
480 4.34661
485 4.756
490 5.0766
495 5.14839
500 5.76228
505 5.95471
510 6.68115
515 7.98074
520 9.23104
525 11.6968
530 15.1172
535 20.8687
540 32.9603
545 946.309
550 9999.9
555 9999.9
560 6656.18
565 804.215
570 111.139
575 24.8681
580 12.401
585 7.95938
590 5.82432
595 4.20001
600 3.88642
Ex : 563
200 0.906643
205 0.85076
210 0.849707
215 0.780247
220 0.984243
225 1.04665
230 1.06096
235 1.11084
240 1.05623
245 1.0047
250 1.11011
255 0.95738
260 1.03622
265 1.1049
270 6.26276
275 151.102
280 126.308
285 17.3624
290 3.26025
295 1.48124
300 1.36821
305 1.41162
310 1.47652
315 1.37308
320 1.56349
325 1.71805
330 1.51235
335 1.55083
340 1.51343
345 1.47155
350 1.68513
355 1.55817
360 1.6511
365 1.68968
370 1.58641
375 1.67061
380 1.56051
385 1.73405
390 2.08226
395 1.94394
400 2.07909
405 2.11966
410 2.30195
415 2.13581
420 2.22082
425 2.41241
430 2.41299
435 2.44556
440 2.60946
445 2.98596
450 3.03932
455 3.29394
460 3.7565
465 4.39838
470 3.88167
475 3.7872
480 4.33765
485 4.38325
490 4.86107
495 4.98576
500 5.38809
505 5.45084
510 6.13326
515 6.96255
520 7.74769
525 9.32646
530 12.1187
535 15.5943
540 21.6143
545 32.9809
550 944.718
555 9999.9
560 9999.9
565 6649.03
570 801.708
575 109.872
580 24.0463
585 11.2377
590 7.41124
595 4.9498
600 4.15702
Ex : 568
200 0.879118
205 0.935369
210 0.957598
215 0.903098
220 1.09022
225 0.925397
230 0.972948
235 1.06712
240 0.967931
245 1.00455
250 0.86234
255 1.01734
260 1.00333
265 1.21416
270 1.34573
275 53.298
280 214.312
285 56.7959
290 7.82887
295 2.28718
300 1.38972
305 1.40595
310 1.45686
315 1.35057
320 1.40654
325 1.4897
330 1.39259
335 1.41744
340 1.45958
345 1.53272
350 1.66016
355 1.57371
360 1.44797
365 1.61246
370 1.66619
375 1.47171
380 1.55748
385 1.59704
390 1.66342
395 1.98248
400 1.91099
405 2.08745
410 1.95506
415 2.00471
420 2.16483
425 2.3827
430 2.3903
435 2.38106
440 2.6516
445 3.20897
450 2.87781
455 2.99298
460 3.49721
465 3.93672
470 3.82593
475 4.00315
480 4.08682
485 4.00853
490 4.26717
495 4.34343
500 4.81755
505 5.2186
510 5.50104
515 5.66349
520 6.51716
525 7.95459
530 8.73735
535 11.4838
540 15.0517
545 20.8411
550 32.5683
555 723.011
560 9999.9
565 9999.9
570 7111.53
575 860.061
580 115.16
585 23.5915
590 10.872
595 7.06102
600 3.34359
Ex : 573
200 1.08137
205 0.84242
210 0.963112
215 1.0099
220 0.91668
225 0.991357
230 0.883852
235 0.997911
240 1.11534
245 1.04456
250 1.09002
255 1.09623
260 1.10355
265 1.04449
270 1.41004
275 6.03334
280 177.794
285 166.36
290 22.5144
295 3.94411
300 1.72105
305 1.37601
310 1.5285
315 1.70389
320 1.60964
325 1.37028
330 1.63643
335 1.53915
340 1.6257
345 1.5267
350 1.6308
355 1.60854
360 1.41745
365 1.57878
370 1.66423
375 1.50026
380 1.88061
385 1.53718
390 1.9768
395 1.8057
400 1.84396
405 1.87481
410 2.1421
415 1.99126
420 2.0917
425 2.09689
430 2.2176
435 2.2538
440 2.38969
445 2.58696
450 3.09417
455 3.005
460 3.26316
465 3.64416
470 3.88384
475 3.77196
480 3.91068
485 3.98886
490 4.24136
495 4.17472
500 4.64747
505 4.75919
510 5.08717
515 5.51511
520 5.82727
525 6.1541
530 7.83425
535 9.23841
540 11.3266
545 14.5424
550 20.1564
555 30.526
560 641.142
565 9999.9
570 9999.9
575 7071.54
580 853.872
585 112.592
590 23.2304
595 10.5631
600 8.87089
Ex : 578
200 0.990607
205 0.907749
210 0.841319
215 0.879683
220 0.823197
225 0.898884
230 0.968874
235 0.911816
240 0.876353
245 0.890299
250 0.986653
255 0.91179
260 0.888826
265 1.05487
270 1.12323
275 1.54116
280 61.785
285 259.133
290 70.3764
295 9.47038
300 2.37232
305 1.56763
310 1.37595
315 1.29767
320 1.50361
325 1.36526
330 1.3473
335 1.31711
340 1.36736
345 1.31371
350 1.51812
355 1.49903
360 1.70917
365 1.47027
370 1.59417
375 1.40885
380 1.6716
385 1.84583
390 1.86946
395 1.69286
400 1.71641
405 2.03658
410 2.0336
415 2.20759
420 2.20683
425 2.21042
430 2.1458
435 2.41542
440 2.51826
445 2.66952
450 2.98695
455 2.96016
460 3.34137
465 3.84002
470 3.45771
475 3.59753
480 3.62562
485 3.85033
490 4.00349
495 4.00054
500 4.1113
505 4.44982
510 4.77842
515 5.10246
520 5.42302
525 5.73604
530 6.09528
535 7.09684
540 8.91602
545 10.8184
550 14.6727
555 19.7635
560 29.7916
565 587.399
570 9999.9
575 9999.9
580 6290.33
585 756.262
590 100.297
595 20.5479
600 9.27222
Ex : 583
200 0.945579
205 1.06728
210 0.817522
215 0.899652
220 0.897261
225 0.808655
230 0.889215
235 0.927365
240 0.898781
245 0.907755
250 0.823854
255 0.868211
260 0.91502
265 1.00459
270 0.971241
275 1.07827
280 7.14962
285 207.37
290 198.262
295 27.1094
300 4.80039
305 1.75815
310 1.51398
315 1.46798
320 1.65747
325 1.56845
330 1.51414
335 1.20387
340 1.48212
345 1.62613
350 1.62896
355 1.29309
360 1.34782
365 1.47027
370 1.62581
375 1.43467
380 1.59324
385 1.57278
390 1.60222
395 1.56532
400 1.81251
405 1.75872
410 1.75024
415 1.79921
420 2.1026
425 1.90662
430 1.93559
435 2.05076
440 2.31536
445 2.59713
450 2.67069
455 2.83854
460 3.024
465 3.35623
470 3.36884
475 3.37017
480 3.57301
485 3.65814
490 3.77322
495 3.64787
500 4.11555
505 4.04578
510 4.19786
515 4.654
520 4.66687
525 5.00962
530 5.69093
535 6.68433
540 7.27001
545 9.22275
550 11.2394
555 14.2146
560 19.6058
565 29.2013
570 532.423
575 9999.9
580 9999.9
585 5451.04
590 657.18
595 87.7431
600 19.6353
Ex : 588
200 0.867407
205 0.858
210 0.930375
215 0.783376
220 0.972074
225 0.88562
230 0.955528
235 0.849455
240 0.915871
245 0.830499
250 0.904333
255 0.880064
260 0.946063
265 1.10044
270 0.968067
275 1.0949
280 1.33787
285 68.5913
290 309.974
295 89.0164
300 11.6048
305 2.68793
310 1.57604
315 1.52873
320 1.44617
325 1.44719
330 1.41683
335 1.38503
340 1.26311
345 1.2267
350 1.361
355 1.38692
360 1.59175
365 1.5782
370 1.48784
375 1.5313
380 1.54281
385 1.63946
390 1.81652
395 1.78308
400 1.65372
405 1.71425
410 1.70717
415 1.83592
420 1.77992
425 1.8893
430 1.8915
435 1.79416
440 1.95108
445 2.35576
450 2.47173
455 2.61087
460 2.96848
465 3.48181
470 3.31733
475 3.1439
480 3.11705
485 3.41552
490 3.49474
495 3.55929
500 3.72459
505 4.0907
510 4.07052
515 3.92475
520 4.54873
525 4.66931
530 5.18657
535 5.58845
540 6.22951
545 7.02534
550 8.51368
555 11.0207
560 14.2498
565 18.4305
570 26.9883
575 487.882
580 9999.9
585 9999.9
590 5224.51
595 628.522
600 88.9933
Ex : 593
200 0.793994
205 0.841802
210 0.797183
215 0.696676
220 0.624698
225 0.96153
230 1.00053
235 0.886611
240 0.749989
245 0.919619
250 0.673709
255 0.724176
260 1.02615
265 0.786032
270 1.02452
275 1.04064
280 1.3109
285 7.76603
290 234.998
295 237.892
300 33.2362
305 5.06828
310 1.90508
315 1.39078
320 1.52137
325 1.45678
330 1.48338
335 1.28498
340 1.47911
345 1.45775
350 1.37432
355 1.38572
360 1.56508
365 1.49982
370 1.58269
375 1.46662
380 1.50701
385 1.67192
390 1.63799
395 1.61636
400 1.71844
405 1.67636
410 1.73866
415 1.65818
420 1.93629
425 1.87927
430 1.62504
435 2.10484
440 2.20923
445 2.21112
450 2.28311
455 2.62928
460 2.60859
465 2.85004
470 3.14031
475 3.03717
480 3.17165
485 3.2167
490 3.19839
495 3.27907
500 3.4506
505 3.59095
510 3.57995
515 3.82992
520 4.01598
525 4.32011
530 4.54964
535 5.05553
540 5.19677
545 5.91574
550 7.34376
555 8.35839
560 10.4824
565 13.1693
570 17.8622
575 24.8935
580 435.725
585 9999.9
590 9999.9
595 4847.18
600 713.484
Ex : 598
200 0.880857
205 0.79783
210 0.75659
215 0.777462
220 0.755961
225 0.980187
230 0.768682
235 0.674366
240 0.713948
245 0.672669
250 0.752419
255 0.75036
260 0.875685
265 0.907704
270 0.818963
275 1.17329
280 1.21219
285 1.48121
290 80.7744
295 364.082
300 110.143
305 14.1886
310 3.07121
315 1.43242
320 1.61402
325 1.5901
330 1.52371
335 1.34501
340 1.42417
345 1.38635
350 1.3334
355 1.29424
360 1.31944
365 1.3765
370 1.6632
375 1.47979
380 1.52342
385 1.34228
390 1.53149
395 1.82079
400 1.68347
405 1.70121
410 1.82275
415 1.82991
420 1.80221
425 1.83316
430 2.0265
435 2.29462
440 2.09376
445 1.91154
450 2.49626
455 2.49763
460 2.51917
465 2.81282
470 3.12717
475 3.08882
480 2.92418
485 3.07711
490 3.34023
495 3.52165
500 3.31121
505 3.41468
510 3.50521
515 3.93996
520 3.673
525 4.17284
530 4.72121
535 4.63014
540 5.17304
545 5.56444
550 6.07776
555 7.21011
560 8.88015
565 9.88341
570 12.6359
575 16.3217
580 22.3754
585 451.27
590 9999.9
595 9999.9
600 9999.9
Ex : 603
200 0.758049
205 0.715859
210 0.827927
215 0.742004
220 0.913363
225 0.736965
230 0.880985
235 0.875304
240 0.935129
245 0.899184
250 0.734995
255 0.755557
260 0.771929
265 0.84472
270 0.86405
275 0.960669
280 0.934915
285 1.18831
290 7.35824
295 269.966
300 291.231
305 40.7875
310 6.13724
315 1.98908
320 1.63656
325 1.49226
330 1.49521
335 1.47418
340 1.31677
345 1.37634
350 1.60432
355 1.54738
360 1.48834
365 1.35618
370 1.58248
375 1.46234
380 1.4755
385 1.58975
390 1.97773
395 1.79349
400 1.63965
405 1.81348
410 1.66529
415 1.7162
420 1.69185
425 1.74258
430 1.76643
435 1.81769
440 2.03688
445 2.06394
450 2.15755
455 2.24611
460 2.81058
465 2.66122
470 2.83297
475 2.65339
480 2.82906
485 2.69152
490 3.02721
495 3.14884
500 3.15513
505 3.31666
510 3.41395
515 3.69854
520 3.68826
525 4.10585
530 3.77892
535 4.52772
540 4.75362
545 4.90898
550 5.28249
555 6.10005
560 6.74033
565 8.15053
570 9.97216
575 11.6105
580 14.2124
585 20.9678
590 392.446
595 9371.29
600 9999.9
