File format V 1.0
mar. 14. juin 10:22:07 2016
Operator : 
Comments : 

=============================================
SpectroFluorometer parameters
Mode : 3D measurement
Data : Fluorescence
Phospho. : Ordinary
Spectrum : Fluorescence

Scan speed : 2400 nm/mn
Response : 100 ms
PM Voltage : 700 V
Shutter : On

Lambda Ex. Start : 203
Lambda Ex. End : 603
Lambda Ex. Step : 5
Ex. Slit : 5 nm

Lambda Em. Start : 200
Lambda Em. End : 600
Lambda Em. Step : 5
Em. Slit : 5 nm

Repetition : 1
Decal lambda em : 10
=============================================
DATA
Ex : 203
200 12.9321
205 15.4761
210 15.0629
215 15.0354
220 15.1772
225 16.2533
230 14.0044
235 16.8617
240 11.2937
245 13.0813
250 17.4048
255 14.4508
260 13.3897
265 17.2613
270 19.0948
275 17.7203
280 20.6147
285 22.5103
290 19.2178
295 18.9417
300 21.6646
305 23.4798
310 20.8762
315 21.9814
320 24.8598
325 22.9963
330 26.2158
335 28.7368
340 25.7206
345 27.233
350 31.4491
355 38.5205
360 33.5945
365 35.9488
370 32.7043
375 40.7047
380 39.2074
385 42.3962
390 39.6573
395 44.9188
400 48.9584
405 42.9954
410 43.3513
415 44.4015
420 42.631
425 49.0425
430 46.6388
435 43.597
440 46.0016
445 47.562
450 47.0813
455 55.2056
460 50.5148
465 61.4177
470 56.1967
475 44.6434
480 55.4158
485 46.8509
490 45.9469
495 51.1907
500 46.3723
505 41.1895
510 45.499
515 36.0379
520 36.8424
525 40.2032
530 47.9458
535 38.2818
540 40.1663
545 39.582
550 34.5915
555 36.2433
560 39.7361
565 36.9391
570 40.9146
575 35.1743
580 32.2087
585 32.9661
590 30.7742
595 24.9542
600 17.3734
Ex : 208
200 10.6842
205 18.4641
210 19.0789
215 17.1412
220 15.8016
225 17.7963
230 14.3235
235 15.8258
240 16.3822
245 15.1493
250 15.2808
255 19.7428
260 17.3931
265 18.2336
270 15.3136
275 17.0179
280 19.5976
285 21.2157
290 20.2793
295 18.2472
300 19.2154
305 20.9162
310 23.8624
315 25.6766
320 28.9947
325 24.4776
330 32.7144
335 29.8327
340 30.1517
345 32.2242
350 27.3729
355 31.2895
360 41.2544
365 34.3804
370 39.0076
375 36.359
380 39.2945
385 46.546
390 42.3337
395 43.0088
400 44.1241
405 46.1476
410 46.3843
415 42.9573
420 43.6118
425 48.4853
430 47.8755
435 47.0706
440 38.9452
445 47.3452
450 43.2788
455 44.2107
460 58.9657
465 57.4269
470 56.392
475 49.9571
480 50.4628
485 52.264
490 47.9329
495 53.8352
500 45.9022
505 47.9627
510 49.6312
515 39.0881
520 45.1747
525 40.6229
530 42.8758
535 40.6649
540 42.4689
545 44.3393
550 36.8591
555 39.6714
560 39.6946
565 40.1978
570 38.1112
575 35.35
580 41.3227
585 32.008
590 30.0547
595 39.2896
600 51.2626
Ex : 213
200 11.774
205 15.9151
210 13.6389
215 12.9914
220 15.5247
225 15.4257
230 13.9114
235 12.9531
240 14.1628
245 14.5559
250 16.4884
255 14.6915
260 22.4387
265 20.0978
270 14.2077
275 19.5147
280 18.8762
285 17.7947
290 20.4209
295 21.5636
300 23.2337
305 20.7882
310 24.6187
315 26.792
320 22.9129
325 29.9984
330 26.9306
335 30.2429
340 29.0005
345 31.9515
350 34.7455
355 33.4583
360 34.6112
365 36.5249
370 37.7038
375 40.8816
380 41.8767
385 39.594
390 40.7651
395 46.3538
400 45.7871
405 52.0785
410 50.7038
415 52.2407
420 48.7853
425 47.6991
430 47.6162
435 44.2761
440 40.1623
445 50.6404
450 51.9603
455 49.4297
460 55.56
465 56.6392
470 61.9193
475 53.3998
480 51.0359
485 42.5991
490 49.8284
495 39.7174
500 38.003
505 41.2997
510 45.5493
515 46.2074
520 37.2101
525 38.4302
530 39.3972
535 40.6638
540 41.3399
545 43.2926
550 40.589
555 46.7114
560 38.6868
565 42.4328
570 41.5303
575 37.3138
580 35.411
585 34.3599
590 31.9115
595 26.525
600 11.5851
Ex : 218
200 11.3036
205 15.5306
210 16.2447
215 15.7418
220 11.5216
225 14.9569
230 16.2623
235 13.8472
240 11.9202
245 11.8343
250 13.7332
255 15.8657
260 15.0904
265 13.5766
270 15.5407
275 22.4439
280 23.4551
285 20.9922
290 22.5732
295 24.9758
300 19.3542
305 23.0969
310 18.4523
315 25.5191
320 26.7238
325 28.5071
330 24.1072
335 28.8757
340 29.1463
345 28.8683
350 32.6967
355 30.944
360 34.9471
365 31.7603
370 40.8142
375 41.393
380 37.7887
385 35.1186
390 43.1316
395 47.6319
400 46.0656
405 48.8997
410 46.9676
415 46.7833
420 44.0016
425 47.9839
430 50.5211
435 51.6415
440 47.297
445 47.8256
450 49.3981
455 53.3579
460 55.3314
465 61.981
470 49.2996
475 50.5045
480 48.9386
485 50.8978
490 48.0052
495 44.4307
500 44.3724
505 42.2253
510 43.5843
515 40.5697
520 46.8676
525 42.5974
530 46.621
535 37.9184
540 41.103
545 41.5945
550 42.0211
555 38.6053
560 49.4384
565 41.0009
570 45.3015
575 40.9401
580 40.5398
585 36.5127
590 29.1913
595 30.6521
600 22.9846
Ex : 223
200 14.1545
205 13.7821
210 15.5434
215 16.107
220 12.8907
225 13.9181
230 16.8409
235 13.9629
240 11.3625
245 17.2215
250 15.022
255 15.8081
260 16.718
265 17.93
270 16.5757
275 16.5403
280 18.5071
285 16.6171
290 19.9823
295 16.3068
300 21.7074
305 22.6295
310 26.0839
315 20.7229
320 24.6485
325 32.6336
330 30.7568
335 28.8711
340 29.7593
345 34.1498
350 29.7673
355 30.1074
360 38.2137
365 46.2686
370 39.2797
375 39.74
380 38.8794
385 45.3992
390 44.1231
395 40.5694
400 46.303
405 48.6073
410 47.123
415 42.89
420 47.7854
425 45.7481
430 50.2028
435 53.2832
440 48.1483
445 45.3697
450 47.0136
455 44.0552
460 52.1031
465 46.1237
470 52.3447
475 58.0572
480 51.2482
485 46.4875
490 42.3572
495 52.4535
500 41.299
505 49.4028
510 39.3731
515 40.0569
520 41.7585
525 42.0809
530 50.6457
535 42.2477
540 41.2201
545 46.4756
550 46.5529
555 42.5103
560 42.8393
565 40.945
570 39.9368
575 43.735
580 36.7665
585 30.9022
590 32.0102
595 35.7108
600 4.06376
Ex : 228
200 13.8784
205 18.6968
210 13.6329
215 13.4864
220 14.04
225 14.9244
230 18.2595
235 11.2802
240 15.3224
245 10.6963
250 11.9053
255 15.8129
260 14.0462
265 16.5654
270 18.0873
275 18.8051
280 19.1237
285 19.2929
290 19.3886
295 16.8742
300 23.3925
305 20.0571
310 21.1881
315 29.0498
320 25.6508
325 31.2212
330 31.3923
335 33.2779
340 31.8803
345 33.7776
350 35.1103
355 30.742
360 33.1228
365 38.0807
370 35.1337
375 40.8789
380 43.1191
385 41.3857
390 38.9232
395 45.9808
400 45.6342
405 44.6623
410 51.1012
415 45.2624
420 48.1959
425 42.0319
430 52.0095
435 44.9348
440 53.4718
445 39.8323
450 54.2842
455 84.1907
460 85.8022
465 71.6092
470 54.3171
475 53.1378
480 45.3203
485 49.2859
490 46.6201
495 47.9212
500 42.4049
505 38.4505
510 37.4501
515 41.1323
520 45.8206
525 45.1889
530 39.2212
535 40.5946
540 47.6585
545 44.3292
550 40.4348
555 38.0933
560 39.8933
565 38.4755
570 41.2575
575 40.2039
580 34.9792
585 37.6283
590 31.9662
595 26.4803
600 14.6606
Ex : 233
200 13.6719
205 12.1447
210 13.4992
215 10.1678
220 13.2602
225 15.8128
230 25.414
235 17.834
240 13.7281
245 11.5266
250 14.6564
255 13.1277
260 16.055
265 13.3657
270 13.3809
275 15.7633
280 16.0613
285 19.5137
290 15.9247
295 19.8991
300 19.7901
305 19.146
310 20.3955
315 23.6652
320 23.3675
325 30.4844
330 33.2939
335 27.9912
340 28.1879
345 35.4541
350 32.6639
355 31.3105
360 36.4276
365 33.5493
370 38.1057
375 34.0909
380 34.6346
385 40.2383
390 37.9491
395 42.3898
400 42.6565
405 45.6913
410 43.5704
415 40.3994
420 37.6567
425 38.024
430 40.6684
435 46.0499
440 45.3212
445 45.1925
450 43.0949
455 64.2159
460 138.798
465 210.448
470 166.539
475 73.7008
480 46.5117
485 45.1577
490 44.4962
495 44.6121
500 41.2692
505 39.6656
510 36.2234
515 36.9642
520 46.4291
525 36.5624
530 39.3453
535 36.759
540 41.0463
545 39.7625
550 42.3362
555 43.0795
560 38.5323
565 41.466
570 40.5299
575 35.4485
580 36.6099
585 29.5108
590 27.0415
595 30.4418
600 30.4048
Ex : 238
200 13.3826
205 9.37255
210 9.8876
215 13.7296
220 12.8037
225 14.55
230 34.65
235 56.3102
240 20.8181
245 11.9775
250 12.6336
255 13.3263
260 14.3308
265 14.1142
270 16.3215
275 14.9459
280 16.0043
285 18.0809
290 19.4582
295 19.6657
300 19.8695
305 19.5655
310 23.7477
315 24.5109
320 24.9793
325 24.3377
330 23.7379
335 28.473
340 28.5934
345 28.1051
350 33.8146
355 31.6895
360 31.958
365 31.3133
370 35.9874
375 31.0129
380 32.749
385 30.8476
390 38.4415
395 40.4135
400 40.2243
405 35.0099
410 40.7598
415 34.1194
420 39.8372
425 37.7765
430 36.1719
435 36.6909
440 41.2186
445 39.3063
450 37.7784
455 42.5997
460 53.5419
465 150.271
470 337.161
475 426.964
480 259.324
485 83.9412
490 45.8223
495 38.2398
500 37.7106
505 37.8386
510 40.3298
515 45.7962
520 42.2446
525 38.1701
530 33.3083
535 38.6649
540 45.3457
545 40.9899
550 42.1233
555 36.8715
560 39.066
565 40.9114
570 37.4123
575 38.2028
580 36.8069
585 27.5303
590 28.7003
595 31.9932
600 25.9224
Ex : 243
200 8.75075
205 9.8883
210 9.02249
215 11.4669
220 9.92472
225 9.0142
230 12.9466
235 60.2564
240 89.2848
245 28.9783
250 11.0151
255 16.5874
260 13.666
265 12.5916
270 12.6256
275 16.14
280 16.867
285 15.022
290 15.7814
295 17.9676
300 14.9151
305 17.5843
310 19.7717
315 20.3335
320 20.6624
325 25.2556
330 21.8656
335 25.1199
340 25.8566
345 26.5073
350 29.9924
355 25.4665
360 30.2798
365 29.9135
370 29.5773
375 27.8421
380 30.8471
385 34.1264
390 32.5551
395 37.196
400 36.8933
405 34.1424
410 32.1062
415 34.8679
420 32.0445
425 30.129
430 33.4789
435 34.5517
440 34.4406
445 32.8133
450 36.913
455 37.6985
460 39.9044
465 38.7484
470 60.5807
475 240.945
480 498.033
485 540.319
490 304.49
495 77.9426
500 40.4738
505 31.6878
510 34.3983
515 36.9799
520 46.7541
525 45.7068
530 44.4998
535 38.4597
540 37.824
545 37.689
550 41.542
555 35.8865
560 41.6752
565 37.1065
570 31.8539
575 34.1962
580 31.7123
585 29.0923
590 25.6537
595 28.9797
600 34.4922
Ex : 248
200 9.26615
205 7.99443
210 7.89566
215 7.96021
220 9.11015
225 8.3437
230 9.79581
235 13.4522
240 85.2839
245 104.061
250 31.3779
255 13.8279
260 15.1951
265 16.4002
270 15.3434
275 13.5349
280 14.8982
285 14.8362
290 13.9017
295 16.7582
300 17.1425
305 16.7964
310 17.6872
315 23.0735
320 22.4016
325 22.3962
330 21.8827
335 20.8235
340 22.806
345 24.2214
350 25.6317
355 28.8488
360 30.2498
365 27.1419
370 28.4597
375 30.174
380 26.8423
385 28.7475
390 32.5557
395 32.915
400 30.5666
405 29.6982
410 32.7273
415 28.8602
420 28.8267
425 27.4234
430 26.3047
435 30.3911
440 28.6961
445 31.2866
450 30.5568
455 32.7432
460 36.6563
465 32.8464
470 33.2415
475 31.4951
480 72.8231
485 311.195
490 616.393
495 603.824
500 302.113
505 72.5336
510 37.8486
515 37.5546
520 38.2896
525 41.3894
530 45.1934
535 46.5204
540 42.7989
545 38.3944
550 37.9035
555 34.3118
560 34.4524
565 30.8998
570 30.6932
575 32.4853
580 30.1116
585 29.2244
590 25.6621
595 27.4686
600 72.6042
Ex : 253
200 9.66456
205 7.15864
210 6.95303
215 7.25139
220 8.17703
225 7.22938
230 8.5987
235 8.61845
240 12.6801
245 98.6318
250 171.586
255 62.9462
260 16.581
265 15.8908
270 14.3492
275 13.9803
280 14.0206
285 13.863
290 13.9484
295 13.0757
300 14.9466
305 16.6649
310 18.2769
315 18.7222
320 20.676
325 19.611
330 21.5329
335 21.0793
340 21.0676
345 22.673
350 23.8453
355 23.9955
360 25.2245
365 24.3346
370 24.4531
375 24.0297
380 22.9192
385 27.3001
390 25.9775
395 26.2213
400 28.1958
405 24.5379
410 26.3967
415 28.4752
420 24.4321
425 24.1232
430 26.2741
435 26.6026
440 27.0779
445 23.6943
450 27.4438
455 26.081
460 29.1682
465 31.5665
470 29.7697
475 27.2988
480 26.6288
485 28.824
490 76.3358
495 326.446
500 679.619
505 913.649
510 622.13
515 160.924
520 61.3798
525 44.6598
530 39.7385
535 42.0813
540 44.2829
545 43.4707
550 41.5241
555 37.2219
560 31.336
565 32.5742
570 29.615
575 27.536
580 27.3887
585 26.2271
590 23.8596
595 20.4243
600 23.5125
Ex : 258
200 5.3178
205 5.96129
210 7.44166
215 6.11384
220 6.3775
225 6.31449
230 6.60787
235 5.99925
240 5.31775
245 16.5523
250 280.864
255 743.983
260 242.476
265 41.2217
270 17.5628
275 17.1315
280 15.0501
285 14.4219
290 12.8795
295 13.5377
300 13.7235
305 15.0819
310 17.8522
315 17.5896
320 20.3877
325 19.0408
330 19.5528
335 20.1795
340 21.9855
345 23.2256
350 21.9743
355 19.9107
360 22.416
365 23.2
370 21.0671
375 21.0579
380 20.5538
385 24.4881
390 25.4141
395 24.7442
400 22.619
405 23.9227
410 23.9404
415 24.978
420 20.0943
425 23.8771
430 21.8349
435 20.5484
440 21.0864
445 24.098
450 24.0198
455 24.6223
460 27.2794
465 26.712
470 26.393
475 24.9713
480 25.6871
485 23.5893
490 24.5441
495 27.3982
500 89.2024
505 748.058
510 2990.85
515 4342.5
520 2708.88
525 519.532
530 113.525
535 58.2189
540 44.2648
545 41.2726
550 43.2852
555 43.8292
560 43.6324
565 39.2646
570 33.6411
575 29.2982
580 26.3518
585 25.225
590 24.6717
595 23.8545
600 26.5155
Ex : 263
200 6.17013
205 6.46999
210 5.00487
215 5.09414
220 5.61658
225 6.312
230 6.70016
235 6.25033
240 5.8598
245 7.67694
250 54.4643
255 1011.01
260 2028.44
265 549.125
270 81.4451
275 22.9625
280 17.6933
285 19.9115
290 15.5319
295 14.3112
300 16.2392
305 16.3796
310 18.3698
315 18.8384
320 18.6886
325 20.6855
330 19.3435
335 18.9698
340 20.7142
345 20.6367
350 22.788
355 20.1579
360 21.1961
365 19.4499
370 19.6819
375 18.035
380 21.2041
385 20.3831
390 19.8905
395 19.887
400 20.8271
405 18.5441
410 20.5396
415 20.9889
420 20.1402
425 20.0672
430 19.2647
435 19.0759
440 20.2176
445 19.7328
450 22.4514
455 20.8022
460 21.2565
465 24.6185
470 24.3589
475 20.9573
480 22.2852
485 21.9642
490 22.2061
495 24.6728
500 27.6574
505 31.9683
510 375.671
515 3262.91
520 9975.64
525 9999.9
530 4805.76
535 827.019
540 152.211
545 63.424
550 48.0156
555 41.2659
560 40.6877
565 42.5851
570 44.678
575 40.1389
580 35.0172
585 30.9769
590 27.9698
595 25.1356
600 19.3333
Ex : 268
200 5.12714
205 4.09947
210 5.26913
215 4.48779
220 4.84979
225 5.55456
230 6.10424
235 6.67493
240 5.68903
245 8.03668
250 8.47554
255 110.76
260 1809.01
265 3028.16
270 849.969
275 117.955
280 29.8862
285 21.2459
290 21.0576
295 19.2232
300 18.2961
305 18.5345
310 18.2036
315 18.0684
320 18.997
325 20.7505
330 21.3922
335 20.4694
340 21.9897
345 22.1997
350 21.4147
355 18.4752
360 19.6168
365 17.7562
370 18.3026
375 18.6537
380 17.0764
385 16.1306
390 18.7574
395 17.2741
400 16.9021
405 17.6372
410 17.5057
415 17.5402
420 17.3197
425 18.2102
430 17.7987
435 17.4399
440 18.1674
445 18.2097
450 17.6185
455 17.0394
460 18.3052
465 20.5725
470 19.7713
475 20.1055
480 20.1449
485 20.9478
490 20.3073
495 21.5353
500 22.7442
505 25.3378
510 26.4314
515 41.1654
520 797.23
525 6186.24
530 9999.9
535 9999.9
540 5773.85
545 1003.08
550 175.55
555 67.7492
560 49.9993
565 42.8044
570 40.7469
575 42.6283
580 40.7803
585 41.6812
590 33.3405
595 30.8452
600 35.4905
Ex : 273
200 4.97617
205 3.92878
210 3.99857
215 4.48684
220 5.49421
225 5.46897
230 4.4594
235 5.49108
240 5.08503
245 6.49609
250 6.98987
255 9.55543
260 160.14
265 2535.32
270 4120.84
275 1017.7
280 138.896
285 33.0637
290 21.7503
295 23.946
300 21.6587
305 21.0459
310 18.1352
315 18.1118
320 19.9124
325 20.1867
330 19.6369
335 19.3883
340 20.4438
345 19.1534
350 18.9191
355 18.7454
360 19.0681
365 16.9725
370 16.8199
375 16.608
380 16.36
385 15.4874
390 15.772
395 16.5827
400 14.2816
405 15.6858
410 14.5813
415 14.0444
420 14.711
425 16.5849
430 15.6202
435 14.3436
440 15.7679
445 15.4057
450 16.1983
455 15.0279
460 16.4861
465 17.835
470 16.7585
475 16.6546
480 16.5252
485 16.165
490 16.9028
495 18.0207
500 17.9869
505 19.8282
510 19.4687
515 24.463
520 32.2958
525 57.2286
530 1126.78
535 7908.07
540 9999.9
545 9999.9
550 5864.37
555 981.688
560 171.594
565 65.5942
570 46.5373
575 39.2122
580 37.2525
585 38.852
590 38.571
595 38.7873
600 38.823
Ex : 278
200 4.17324
205 4.1135
210 4.28541
215 4.35736
220 4.4431
225 4.27438
230 4.31894
235 4.05
240 4.56599
245 5.75467
250 5.89037
255 7.11728
260 10.3298
265 173.526
270 2849.14
275 4822.6
280 1165.56
285 156.007
290 34.4219
295 22.4617
300 24.9506
305 23.2167
310 19.751
315 19.4113
320 19.2129
325 20.4459
330 19.4131
335 19.702
340 21.0519
345 20.1084
350 19.7236
355 17.6376
360 16.475
365 17.701
370 15.581
375 15.4166
380 14.0005
385 14.1252
390 14.2201
395 13.7637
400 13.6107
405 12.9401
410 14.9663
415 13.5897
420 12.5183
425 13.1124
430 12.692
435 13.9929
440 13.7762
445 14.0703
450 14.1755
455 13.897
460 15.2752
465 15.1572
470 15.3532
475 15.265
480 14.6731
485 14.7694
490 14.5896
495 15.2511
500 14.8844
505 14.5692
510 15.7053
515 18.6804
520 20.7699
525 26.1664
530 33.0157
535 63.1656
540 1290.61
545 8218.36
550 9999.9
555 9999.9
560 5666.07
565 943.562
570 160.795
575 63.7727
580 43.7733
585 37.8875
590 33.6074
595 34.3231
600 28.8461
Ex : 283
200 3.46804
205 3.38951
210 3.29774
215 3.26961
220 3.22209
225 3.5131
230 4.02706
235 3.90286
240 4.14439
245 4.24703
250 5.2305
255 5.61311
260 7.30127
265 10.339
270 206.473
275 3208.57
280 5159.67
285 1294.28
290 171.132
295 36.4816
300 22.1499
305 23.5923
310 22.7554
315 19.7949
320 18.0204
325 17.5666
330 17.9937
335 17.4106
340 17.8025
345 18.1116
350 16.7364
355 16.0131
360 13.9702
365 15.0888
370 14.6365
375 13.2366
380 11.5769
385 12.0364
390 12.9677
395 12.6919
400 12.5882
405 12.2563
410 11.528
415 11.653
420 10.9767
425 11.9723
430 12.1745
435 11.8237
440 11.973
445 11.8648
450 11.5204
455 12.3352
460 12.1493
465 12.4057
470 12.6942
475 12.36
480 12.4272
485 12.1523
490 11.8521
495 12.0289
500 12.5497
505 13.231
510 12.9857
515 15.4763
520 15.5215
525 18.0655
530 20.1569
535 25.4177
540 33.8048
545 64.709
550 1431.45
555 8489.77
560 9999.9
565 9999.9
570 5581.62
575 912.732
580 156.001
585 57.858
590 40.1245
595 32.1694
600 26.125
Ex : 288
200 3.04881
205 2.87955
210 3.29488
215 3.08897
220 2.83247
225 2.81891
230 3.70835
235 3.85847
240 3.87646
245 4.30369
250 3.85021
255 4.2627
260 5.92666
265 7.41289
270 11.4261
275 215.152
280 3805.37
285 5996.58
290 1493.36
295 193.963
300 39.3094
305 21.6322
310 22.903
315 22.6361
320 18.8505
325 16.8161
330 16.8078
335 17.1528
340 16.3804
345 16.5485
350 16.3117
355 15.3883
360 13.888
365 13.2292
370 13.189
375 12.2349
380 11.6879
385 12.0903
390 11.4042
395 12.188
400 11.2424
405 11.4005
410 10.7963
415 10.5049
420 10.7156
425 10.3671
430 10.143
435 11.2994
440 10.5113
445 11.1157
450 10.751
455 11.4006
460 12.0018
465 12.292
470 12.5162
475 11.1551
480 11.2416
485 11.0506
490 11.1774
495 10.4014
500 10.7464
505 11.2352
510 11.8514
515 11.9439
520 13.3764
525 13.874
530 15.4511
535 19.1021
540 21.339
545 25.2983
550 33.9677
555 64.6809
560 1518.98
565 8731.62
570 9999.9
575 9999.9
580 5543.56
585 875.276
590 146.919
595 55.3045
600 38.2804
Ex : 293
200 2.65479
205 2.70716
210 3.13982
215 2.80934
220 2.80022
225 3.06247
230 2.93466
235 3.09776
240 3.6659
245 3.45945
250 3.78498
255 4.25801
260 4.60158
265 6.04701
270 7.91104
275 11.6481
280 274.505
285 4292.16
290 6549.92
295 1597.99
300 206.966
305 40.6766
310 20.9053
315 20.3868
320 22.5536
325 18.6316
330 16.2674
335 15.6151
340 15.7049
345 15.1034
350 14.291
355 13.7097
360 13.7073
365 12.6545
370 12.0292
375 11.3724
380 11.5172
385 11.6061
390 11.7618
395 10.7156
400 11.1326
405 11.4699
410 11.1573
415 10.6752
420 10.1277
425 9.86259
430 10.4207
435 9.77785
440 9.77743
445 10.4026
450 10.3493
455 10.2166
460 10.5169
465 10.7185
470 9.93184
475 10.399
480 10.1641
485 9.60475
490 9.15292
495 9.79441
500 9.46697
505 9.55563
510 10.4246
515 10.3502
520 10.4091
525 11.3764
530 12.0618
535 13.3502
540 15.434
545 17.5701
550 20.8612
555 24.8131
560 34.5432
565 69.7183
570 1684.77
575 9568.38
580 9999.9
585 9999.9
590 4837.09
595 730.482
600 132.839
Ex : 298
200 2.70896
205 2.99174
210 2.71909
215 2.63651
220 2.43887
225 2.70542
230 2.98661
235 3.09013
240 3.37524
245 3.53592
250 4.08966
255 3.48253
260 4.09865
265 4.89865
270 6.18628
275 7.82047
280 12.5573
285 304.464
290 4867.47
295 7099.38
300 1777.6
305 228.412
310 44.6826
315 21.627
320 21.4503
325 22.6131
330 19.0967
335 14.9787
340 13.9334
345 13.5507
350 13.7676
355 12.6872
360 12.1228
365 11.9124
370 11.0962
375 10.8676
380 10.7834
385 10.1971
390 10.3702
395 10.8705
400 10.5055
405 9.63684
410 10.3012
415 10.1507
420 9.28036
425 8.99088
430 9.37686
435 9.13273
440 8.73167
445 8.94262
450 9.86592
455 8.63226
460 9.89098
465 9.81355
470 9.35536
475 8.4308
480 9.48674
485 8.90998
490 9.1396
495 8.84753
500 8.61479
505 8.71807
510 8.5528
515 8.31467
520 9.2265
525 9.33744
530 9.66495
535 11.0463
540 11.7938
545 13.0906
550 14.6751
555 17.1426
560 18.8894
565 25.0747
570 32.1745
575 75.8016
580 1889.4
585 9968.61
590 9999.9
595 9999.9
600 7980.71
Ex : 303
200 2.40987
205 2.43446
210 2.44443
215 2.50585
220 2.87014
225 2.54935
230 2.46497
235 2.49363
240 2.95711
245 3.24265
250 2.99936
255 3.42212
260 3.40536
265 4.37783
270 4.93901
275 6.07546
280 7.93955
285 13.5117
290 319.29
295 5319.3
300 8042.77
305 1944.98
310 248.161
315 47.2957
320 20.5553
325 19.7735
330 21.1669
335 19.1265
340 14.7573
345 12.6842
350 12.5079
355 11.1772
360 11.5255
365 10.5535
370 10.3256
375 10.0873
380 9.73369
385 9.61845
390 9.23792
395 9.81505
400 9.16304
405 8.8616
410 9.08596
415 9.12579
420 8.44313
425 8.17481
430 8.66401
435 8.36018
440 8.39695
445 7.8866
450 7.88621
455 8.23729
460 8.58191
465 8.79765
470 8.76286
475 8.19025
480 8.22157
485 7.9004
490 8.25248
495 7.79537
500 8.07738
505 7.34689
510 7.37578
515 7.03743
520 7.44935
525 7.64635
530 8.05197
535 9.24483
540 9.18522
545 9.92508
550 10.8008
555 12.0158
560 13.2442
565 15.3064
570 18.0565
575 23.006
580 31.167
585 77.5507
590 2020.45
595 9678.84
600 9999.9
Ex : 308
200 2.11451
205 2.13819
210 2.27274
215 2.18754
220 2.39149
225 2.34276
230 2.35305
235 2.53092
240 2.64942
245 3.08261
250 3.01244
255 3.18807
260 3.46883
265 3.87753
270 4.4357
275 4.96882
280 6.09641
285 8.44215
290 13.9642
295 381.481
300 5859.22
305 8570.82
310 2048.23
315 260.699
320 49.0764
325 21.1564
330 18.7188
335 20.5277
340 18.7176
345 14.3598
350 12.3179
355 11.2819
360 10.1702
365 10.1776
370 9.76727
375 9.69479
380 8.98659
385 9.24175
390 8.6634
395 8.69039
400 8.29539
405 8.19563
410 8.3286
415 8.29199
420 7.98008
425 7.93049
430 7.47917
435 7.46433
440 7.18377
445 8.22554
450 8.01695
455 7.55125
460 8.24363
465 7.90826
470 8.05452
475 7.53171
480 7.86725
485 7.37704
490 7.33964
495 6.99898
500 6.73819
505 6.65439
510 6.83481
515 6.4255
520 7.05083
525 7.44819
530 7.49246
535 8.11565
540 7.93913
545 8.70767
550 9.42193
555 10.183
560 10.5572
565 12.2552
570 13.3755
575 14.4433
580 17.3294
585 21.5925
590 30.0167
595 91.4051
600 391.683
Ex : 313
200 2.04915
205 2.01179
210 2.16672
215 1.9541
220 2.37541
225 2.28486
230 2.34243
235 2.5844
240 2.48865
245 2.83869
250 2.58164
255 2.81683
260 3.2718
265 3.38566
270 3.83988
275 4.33597
280 5.33694
285 6.69826
290 9.11571
295 14.9219
300 418.371
305 6870.08
310 9999.9
315 2377.97
320 301.562
325 53.9684
330 21.2734
335 17.1218
340 19.3324
345 18.6778
350 14.8426
355 11.9946
360 10.1206
365 10.3726
370 9.87695
375 9.0878
380 8.85446
385 8.69352
390 8.59608
395 8.84935
400 8.79603
405 8.26803
410 8.34128
415 7.78099
420 7.24327
425 7.22001
430 7.81586
435 7.60294
440 7.38035
445 7.25849
450 6.8781
455 7.12869
460 7.18477
465 7.47492
470 7.43773
475 7.02462
480 6.96237
485 6.81474
490 7.0493
495 7.0259
500 6.9943
505 6.56452
510 6.74504
515 6.3034
520 6.38835
525 6.55729
530 6.72807
535 7.09159
540 7.25803
545 7.8667
550 7.98339
555 8.42531
560 8.85907
565 9.55799
570 10.3475
575 11.2185
580 12.3534
585 14.7647
590 17.3909
595 22.455
600 25.3836
Ex : 318
200 2.02079
205 2.21086
210 2.30795
215 2.20793
220 2.33448
225 2.12674
230 2.37179
235 2.49249
240 2.61428
245 2.40617
250 2.96651
255 2.51031
260 2.86606
265 3.59962
270 3.57087
275 4.1027
280 4.82785
285 5.56037
290 7.43269
295 9.58912
300 16.4873
305 539.524
310 8043.87
315 9999.9
320 2540.23
325 320.689
330 57.4879
335 22.8186
340 17.7101
345 18.5179
350 18.446
355 16.0188
360 11.8871
365 10.7473
370 10.0546
375 9.92445
380 9.05462
385 9.06889
390 9.33157
395 8.5348
400 8.02585
405 7.77981
410 8.27785
415 8.02752
420 7.67426
425 7.46252
430 6.98649
435 7.37357
440 7.49358
445 7.34812
450 7.21881
455 7.23293
460 7.58911
465 7.28093
470 7.45613
475 6.5475
480 6.614
485 7.20424
490 6.67654
495 6.54219
500 6.39423
505 6.75223
510 6.34647
515 6.03197
520 5.94349
525 5.94656
530 6.1619
535 6.49278
540 6.86037
545 7.04646
550 7.31456
555 7.27706
560 7.22939
565 7.93214
570 8.77902
575 9.3515
580 10.1778
585 10.7028
590 12.531
595 14.5159
600 19.0883
Ex : 323
200 2.33246
205 2.21203
210 2.17545
215 2.42427
220 2.65701
225 2.38271
230 2.28511
235 2.36675
240 2.37848
245 2.54115
250 2.60453
255 2.73461
260 2.91864
265 3.09499
270 3.26994
275 3.64686
280 4.20426
285 5.15073
290 5.83088
295 7.67522
300 10.7921
305 17.5457
310 566.565
315 8780.96
320 9999.9
325 2831.47
330 356.895
335 62.7255
340 23.6964
345 17.8737
350 18.4773
355 18.2548
360 15.7901
365 12.1485
370 10.4244
375 10.2046
380 9.24837
385 8.90126
390 8.96216
395 8.55501
400 8.57683
405 8.12713
410 7.53401
415 7.55359
420 7.40563
425 7.18724
430 6.90202
435 7.11153
440 7.08183
445 7.06916
450 6.77985
455 6.95699
460 6.79081
465 6.88427
470 6.90665
475 6.68076
480 6.59439
485 6.6995
490 6.77371
495 6.17655
500 5.81565
505 5.71834
510 5.777
515 5.79041
520 6.0437
525 5.82441
530 6.18604
535 5.74049
540 6.20643
545 6.25128
550 6.33665
555 6.46727
560 6.52289
565 6.90289
570 7.52382
575 7.67411
580 8.45566
585 8.73804
590 10.0393
595 10.8815
600 10.9552
Ex : 328
200 1.95096
205 1.91156
210 1.98352
215 2.06116
220 2.08921
225 2.39205
230 2.50575
235 2.33176
240 2.55464
245 2.63726
250 2.43271
255 2.51324
260 2.99429
265 2.91111
270 3.47884
275 3.71023
280 3.69562
285 4.21102
290 5.33017
295 5.83519
300 7.93747
305 11.1069
310 18.8428
315 631.572
320 9927.95
325 9999.9
330 2895.37
335 365.726
340 64.8402
345 23.7745
350 17.4717
355 17.4138
360 18.3736
365 16.9468
370 12.5907
375 10.2948
380 9.33867
385 9.28637
390 9.00608
395 8.47814
400 8.59118
405 8.41773
410 7.97582
415 7.7628
420 7.43067
425 7.28741
430 7.34044
435 7.27262
440 6.63258
445 6.78767
450 6.91203
455 6.47399
460 6.85536
465 7.16357
470 6.68606
475 6.47098
480 6.60224
485 6.46464
490 6.27726
495 6.05866
500 6.1661
505 6.05612
510 5.64562
515 5.79412
520 5.36732
525 5.63403
530 5.54315
535 5.90881
540 5.59226
545 5.89282
550 6.01685
555 5.62303
560 5.94702
565 5.97642
570 6.39833
575 6.75937
580 6.72497
585 6.97237
590 7.48524
595 8.02292
600 7.9127
Ex : 333
200 1.80864
205 1.70742
210 1.84599
215 1.98636
220 2.18852
225 2.16365
230 2.18032
235 2.27368
240 2.1832
245 2.43074
250 2.38499
255 2.74202
260 2.72496
265 2.71369
270 2.94171
275 3.22431
280 3.2441
285 4.10236
290 4.49549
295 5.41067
300 6.14445
305 8.08481
310 12.1227
315 20.8
320 776.27
325 9999.9
330 9999.9
335 3061.71
340 384.334
345 66.6496
350 24.8742
355 17.2105
360 15.5861
365 16.8933
370 16.5516
375 13.8502
380 10.6622
385 9.85328
390 9.40461
395 9.27216
400 8.42272
405 8.16251
410 8.02446
415 7.61975
420 7.23755
425 7.29284
430 7.05562
435 6.78116
440 6.67655
445 6.65121
450 6.80227
455 6.79486
460 6.23019
465 6.8227
470 6.58659
475 6.05571
480 6.10363
485 6.03579
490 5.87373
495 5.4611
500 5.6623
505 5.64009
510 5.26068
515 5.48214
520 4.98212
525 5.2177
530 5.48132
535 5.26354
540 5.33845
545 5.42789
550 5.53029
555 5.56451
560 5.56251
565 5.3299
570 5.84822
575 5.71486
580 6.26672
585 6.08523
590 6.52401
595 6.76782
600 6.24376
Ex : 338
200 1.62255
205 1.81492
210 1.7659
215 1.81966
220 1.88335
225 1.94447
230 2.05731
235 1.82802
240 2.28915
245 2.23408
250 2.35704
255 2.28065
260 2.51496
265 2.6042
270 2.56183
275 2.90968
280 2.93622
285 3.27796
290 3.9832
295 4.22815
300 5.4056
305 6.374
310 8.35943
315 12.6018
320 22.0423
325 824.562
330 9999.9
335 9999.9
340 3154.68
345 395.701
350 68.0732
355 24.2308
360 16.9072
365 14.8548
370 16.3889
375 16.502
380 14.4498
385 11.014
390 10.0049
395 9.63217
400 8.42292
405 7.99714
410 8.31177
415 7.54538
420 7.3026
425 7.09864
430 6.77164
435 6.59193
440 6.468
445 6.6847
450 6.45794
455 6.49937
460 6.65313
465 6.31857
470 6.128
475 6.18536
480 6.25547
485 5.74415
490 5.58779
495 5.09458
500 4.94623
505 4.78011
510 4.80883
515 4.79998
520 4.55038
525 4.66367
530 5.04109
535 4.7614
540 4.74853
545 4.78198
550 4.91721
555 5.32636
560 4.97353
565 4.89127
570 5.35469
575 5.26333
580 5.3129
585 5.05342
590 5.43732
595 5.9564
600 5.56261
Ex : 343
200 1.73325
205 1.69359
210 1.63117
215 1.62051
220 1.55484
225 2.04111
230 1.94311
235 1.90134
240 1.81448
245 2.02444
250 1.99294
255 2.3612
260 2.37014
265 2.5501
270 2.63592
275 2.66907
280 3.02348
285 3.12749
290 3.49813
295 3.9473
300 4.75956
305 5.38102
310 6.75231
315 8.8364
320 13.4626
325 23.364
330 855.905
335 9999.9
340 9999.9
345 3226.62
350 404.401
355 69.1387
360 24.4136
365 16.5475
370 14.2537
375 15.1013
380 15.9639
385 15.2076
390 11.969
395 9.93782
400 8.46314
405 8.38507
410 7.76485
415 7.66406
420 7.05846
425 6.81356
430 6.33691
435 6.63095
440 6.29479
445 6.54708
450 6.20974
455 6.34341
460 6.28348
465 6.22471
470 6.01117
475 5.45464
480 5.53172
485 5.57806
490 5.37701
495 5.09797
500 4.53413
505 4.85683
510 4.76092
515 4.5047
520 4.85174
525 4.49325
530 4.5003
535 4.66677
540 4.78147
545 4.4493
550 4.27729
555 4.55538
560 4.54173
565 4.70062
570 4.61648
575 4.35704
580 4.40476
585 4.75133
590 4.77219
595 4.8731
600 4.37999
Ex : 348
200 1.7021
205 1.67555
210 1.7262
215 1.71036
220 1.62739
225 1.74691
230 1.77768
235 1.8687
240 1.84043
245 1.99374
250 1.9585
255 2.09726
260 2.35387
265 2.43505
270 2.34098
275 2.48103
280 2.63987
285 2.86309
290 3.23864
295 3.55328
300 4.0225
305 4.39596
310 5.3972
315 7.02251
320 9.57085
325 14.0379
330 23.5917
335 814.699
340 9999.9
345 9999.9
350 3855.85
355 479.278
360 78.7758
365 26.0825
370 17.1092
375 14.527
380 13.9939
385 15.6347
390 15.3833
395 12.4379
400 9.9296
405 8.99305
410 8.09344
415 7.79966
420 7.53563
425 7.35802
430 6.96893
435 6.73786
440 6.49478
445 6.43175
450 5.98482
455 6.25742
460 6.16024
465 6.13867
470 6.19598
475 5.67563
480 5.81963
485 5.50669
490 5.16773
495 5.02093
500 5.00991
505 4.67493
510 4.22213
515 4.27464
520 4.19308
525 4.35258
530 4.13827
535 4.16628
540 4.39244
545 4.14456
550 4.32903
555 4.22173
560 4.33184
565 4.30184
570 3.99855
575 4.05351
580 4.07114
585 3.95047
590 4.32044
595 4.44027
600 4.091
Ex : 353
200 1.64059
205 1.53061
210 1.63494
215 1.5225
220 1.53283
225 1.75576
230 1.59258
235 1.81649
240 1.83385
245 1.94346
250 2.07085
255 2.09697
260 2.1345
265 2.31435
270 2.39351
275 2.39297
280 2.61806
285 2.75097
290 2.96982
295 3.2728
300 3.85531
305 4.24614
310 4.96169
315 6.00011
320 7.35403
325 10.132
330 14.9838
335 25.8469
340 908.86
345 9999.9
350 9999.9
355 3867.28
360 481.637
365 79.5361
370 27.1978
375 17.6941
380 14.6412
385 13.9007
390 14.9181
395 15.156
400 13.5698
405 10.3618
410 9.13495
415 8.60129
420 7.97209
425 7.5767
430 7.34445
435 7.22177
440 6.59841
445 6.58888
450 6.21324
455 6.29803
460 6.22599
465 6.26027
470 5.8085
475 5.44766
480 5.83058
485 5.44119
490 5.34123
495 5.10184
500 4.67215
505 4.65416
510 4.40627
515 4.40666
520 4.19938
525 4.07038
530 4.13866
535 4.23465
540 4.14121
545 3.97319
550 4.14159
555 3.88123
560 3.83953
565 3.98449
570 3.92559
575 3.75072
580 3.72561
585 3.73402
590 3.81467
595 3.99897
600 4.28244
Ex : 358
200 1.60556
205 1.53953
210 1.50806
215 1.46438
220 1.521
225 1.6452
230 1.64353
235 1.61698
240 1.67772
245 1.8228
250 1.78626
255 1.97768
260 1.83098
265 2.00235
270 2.12637
275 2.13535
280 2.18177
285 2.51684
290 2.64771
295 2.75103
300 3.1387
305 3.65539
310 4.22913
315 4.98972
320 5.95405
325 7.72735
330 10.342
335 15.1031
340 26.2433
345 891.806
350 9999.9
355 9999.9
360 3951.89
365 491.11
370 80.6413
375 26.797
380 17.3916
385 14.1921
390 13.2143
395 14.8129
400 14.9943
405 13.6648
410 10.5328
415 9.08343
420 8.27657
425 7.69258
430 7.11443
435 6.78343
440 6.76177
445 6.71371
450 6.34083
455 6.05057
460 6.22692
465 6.13756
470 5.89282
475 5.49447
480 5.18845
485 5.27405
490 4.82073
495 4.72576
500 4.65862
505 4.46493
510 4.31851
515 4.27088
520 4.16319
525 4.033
530 4.09631
535 3.77101
540 3.72199
545 3.68835
550 3.87738
555 3.61155
560 3.51799
565 3.75394
570 3.61593
575 3.43137
580 3.53089
585 3.33824
590 3.59073
595 3.44069
600 2.6743
Ex : 363
200 1.44957
205 1.37773
210 1.47894
215 1.41752
220 1.4599
225 1.63848
230 1.43052
235 1.6311
240 1.53489
245 1.62886
250 1.61993
255 1.7684
260 1.88896
265 1.99058
270 1.99973
275 2.17158
280 2.27384
285 2.41869
290 2.44905
295 2.57183
300 3.11048
305 3.1973
310 3.55385
315 4.22497
320 4.99146
325 5.99575
330 7.68161
335 10.1667
340 14.9153
345 25.8726
350 826.805
355 9999.9
360 9999.9
365 4086.06
370 507.293
375 82.0407
380 26.5611
385 16.9312
390 14.4087
395 11.9777
400 13.3313
405 14.4963
410 14.0272
415 10.9555
420 9.26383
425 7.75426
430 7.61081
435 6.96552
440 6.64732
445 6.62954
450 6.38713
455 6.04884
460 6.04753
465 6.0024
470 5.56467
475 5.39164
480 5.20249
485 5.12525
490 4.86671
495 4.63156
500 4.552
505 4.14754
510 4.03386
515 3.94079
520 3.83026
525 3.61881
530 3.54916
535 3.73224
540 3.39509
545 3.39479
550 3.47383
555 3.31211
560 3.48946
565 3.22338
570 3.23642
575 3.13418
580 3.09927
585 3.02939
590 2.91632
595 2.99773
600 2.92558
Ex : 368
200 1.39305
205 1.42734
210 1.38183
215 1.51355
220 1.394
225 1.41157
230 1.41393
235 1.49642
240 1.59291
245 1.70018
250 1.5946
255 1.70798
260 1.76136
265 1.71647
270 1.9478
275 1.79325
280 2.12942
285 2.13407
290 2.22877
295 2.38541
300 2.71921
305 2.96971
310 3.12588
315 3.63203
320 3.907
325 4.97398
330 6.06128
335 7.28802
340 10.4554
345 15.0276
350 25.0883
355 685.458
360 9999.9
365 9999.9
370 4562.34
375 565.023
380 89.3496
385 27.6098
390 17.4758
395 13.9717
400 11.6035
405 12.1356
410 13.5108
415 13.6337
420 11.2226
425 8.94092
430 7.55273
435 7.1032
440 6.7877
445 6.41588
450 6.07618
455 5.8811
460 5.94016
465 5.92341
470 5.80388
475 5.19887
480 5.04923
485 5.24391
490 4.69867
495 4.32869
500 4.36401
505 4.05236
510 3.93225
515 3.68855
520 3.71984
525 3.57528
530 3.48081
535 3.36871
540 3.3173
545 2.90903
550 3.16332
555 3.05053
560 2.87147
565 2.98321
570 2.89383
575 2.91087
580 3.08248
585 2.85495
590 2.83502
595 2.80138
600 3.40834
Ex : 373
200 1.25201
205 1.33727
210 1.31781
215 1.41332
220 1.30976
225 1.31506
230 1.4492
235 1.42825
240 1.47168
245 1.4891
250 1.45453
255 1.57372
260 1.58033
265 1.6805
270 1.85578
275 1.89137
280 1.85709
285 2.14133
290 2.17315
295 2.50754
300 2.51692
305 2.6596
310 2.94694
315 3.31828
320 3.69554
325 4.41372
330 4.95927
335 6.09396
340 7.47216
345 9.96988
350 15.1859
355 26.2748
360 853.084
365 9999.9
370 9999.9
375 4583.79
380 565.862
385 89.1564
390 28.1456
395 17.7524
400 14.123
405 11.303
410 11.834
415 13.1126
420 12.9321
425 11.5229
430 9.31491
435 7.8013
440 7.10663
445 6.96715
450 6.66149
455 6.07954
460 5.98009
465 5.78634
470 5.40794
475 5.35556
480 5.12676
485 4.87025
490 4.66541
495 4.38722
500 4.20936
505 3.92924
510 3.89593
515 3.71
520 3.65387
525 3.4607
530 3.26499
535 2.88134
540 3.14304
545 2.95401
550 2.99564
555 3.00037
560 3.14267
565 2.80655
570 2.84415
575 2.77061
580 2.80309
585 2.72994
590 2.51079
595 2.60806
600 3.30076
Ex : 378
200 1.31094
205 1.30641
210 1.43815
215 1.1833
220 1.28526
225 1.28236
230 1.33821
235 1.36459
240 1.40468
245 1.49232
250 1.44014
255 1.64596
260 1.62936
265 1.53544
270 1.69499
275 1.7918
280 1.95416
285 2.0876
290 2.12912
295 2.16367
300 2.34066
305 2.5712
310 2.78368
315 2.88994
320 3.34401
325 3.93101
330 4.2892
335 5.26666
340 6.57675
345 7.90185
350 10.7413
355 15.348
360 26.645
365 853.744
370 9999.9
375 9999.9
380 4546.48
385 562.226
390 89.5231
395 28.2859
400 17.556
405 13.6465
410 11.4048
415 10.599
420 11.7673
425 12.1282
430 11.6736
435 9.41446
440 7.71219
445 6.97361
450 6.63668
455 6.25013
460 6.19524
465 6.12213
470 5.37079
475 5.26619
480 5.16653
485 4.77759
490 4.59405
495 4.17431
500 4.12999
505 3.8462
510 3.71366
515 3.75204
520 3.51396
525 3.33996
530 3.15507
535 3.20345
540 3.23671
545 3.15181
550 2.78807
555 2.70927
560 2.80903
565 2.7318
570 2.80178
575 2.58647
580 2.4475
585 2.44426
590 2.3317
595 2.3194
600 1.91109
Ex : 383
200 1.36137
205 1.26188
210 1.39708
215 1.44163
220 1.42878
225 1.29698
230 1.50958
235 1.33639
240 1.43692
245 1.44252
250 1.41808
255 1.43156
260 1.59958
265 1.64136
270 1.75247
275 1.88535
280 1.97975
285 1.84782
290 1.94768
295 2.10725
300 2.31579
305 2.47079
310 2.5465
315 2.5459
320 2.89044
325 3.39943
330 3.78375
335 4.51157
340 5.27755
345 6.4652
350 7.80047
355 10.5274
360 15.5579
365 26.3728
370 795.073
375 9999.9
380 9999.9
385 4952.18
390 612.288
395 95.5006
400 28.4536
405 17.8642
410 14.4466
415 11.194
420 10.5391
425 11.5721
430 11.7703
435 11.7873
440 9.85569
445 7.7918
450 7.00303
455 6.49335
460 6.33174
465 6.1528
470 5.87721
475 5.42704
480 5.32429
485 4.8044
490 4.84073
495 4.40344
500 4.19478
505 3.8937
510 3.72941
515 3.46467
520 3.57372
525 3.45663
530 3.31458
535 3.25471
540 3.0343
545 2.92205
550 2.7994
555 2.72958
560 2.74485
565 2.81286
570 2.65464
575 2.72973
580 2.39953
585 2.4152
590 2.31867
595 2.22847
600 2.49464
Ex : 388
200 1.37321
205 1.23978
210 1.23094
215 1.29642
220 1.37067
225 1.36207
230 1.30421
235 1.39721
240 1.41548
245 1.39754
250 1.46175
255 1.46414
260 1.5031
265 1.66008
270 1.63521
275 1.72018
280 1.78724
285 2.00239
290 1.93323
295 2.11681
300 2.13006
305 2.32275
310 2.4028
315 2.61129
320 2.85374
325 3.08416
330 3.63072
335 4.14296
340 4.53511
345 5.60964
350 6.38817
355 8.0727
360 11.0959
365 16.8245
370 28.2991
375 879.207
380 9999.9
385 9999.9
390 5059.13
395 623.887
400 96.9229
405 29.3907
410 17.6679
415 13.5998
420 10.9934
425 9.84124
430 10.4901
435 11.7652
440 11.5424
445 10.6845
450 8.55384
455 7.4358
460 6.80267
465 6.04568
470 5.8554
475 5.50028
480 5.27389
485 4.95948
490 4.79479
495 4.4705
500 4.10587
505 3.9835
510 3.7953
515 3.58383
520 3.39848
525 3.37572
530 3.27251
535 3.00418
540 2.97763
545 2.89193
550 2.87957
555 2.8167
560 2.53977
565 2.47996
570 2.37312
575 2.41525
580 2.32189
585 2.37894
590 2.29531
595 2.1593
600 1.38722
Ex : 393
200 1.25002
205 1.27106
210 1.31683
215 1.33059
220 1.33833
225 1.22289
230 1.38476
235 1.40254
240 1.40492
245 1.36054
250 1.43503
255 1.53612
260 1.4163
265 1.48662
270 1.60665
275 1.76826
280 1.89556
285 1.91503
290 1.90506
295 2.0789
300 1.99299
305 2.41389
310 2.41299
315 2.52577
320 2.73001
325 3.04293
330 3.45807
335 3.60854
340 4.30849
345 4.89881
350 5.79988
355 6.88088
360 8.49803
365 11.8995
370 17.326
375 29.0847
380 845.132
385 9999.9
390 9999.9
395 5664.91
400 698.931
405 106.74
410 31.0434
415 18.5432
420 14.1933
425 11.1969
430 10.0002
435 10.4661
440 11.8699
445 11.9647
450 11.1205
455 8.9135
460 7.70672
465 6.96086
470 6.32982
475 5.90865
480 5.51824
485 5.09941
490 4.73276
495 4.50953
500 4.32584
505 4.01274
510 4.03163
515 3.63511
520 3.5727
525 3.42128
530 3.39567
535 3.29511
540 3.21615
545 2.99751
550 3.01343
555 2.8061
560 2.67632
565 2.57403
570 2.45265
575 2.40642
580 2.35408
585 2.30236
590 2.15733
595 2.12226
600 2.28171
Ex : 398
200 1.48158
205 1.2685
210 1.21979
215 1.32261
220 1.3363
225 1.30373
230 1.39055
235 1.47077
240 1.39815
245 1.38951
250 1.42235
255 1.49351
260 1.63213
265 1.56473
270 1.55128
275 1.8608
280 1.80274
285 1.80032
290 1.87798
295 2.03225
300 2.10021
305 2.07518
310 2.44267
315 2.6194
320 2.77696
325 2.82762
330 3.027
335 3.33748
340 3.67215
345 4.16208
350 4.94321
355 5.69407
360 7.14902
365 8.96308
370 12.0159
375 17.2923
380 29.4664
385 925.762
390 9999.9
395 9999.9
400 5843.07
405 717.187
410 108.485
415 31.2464
420 17.9732
425 14.2177
430 10.8753
435 9.88585
440 9.80613
445 11.1949
450 11.3052
455 11.0398
460 9.67981
465 7.84339
470 6.63884
475 6.01093
480 5.53613
485 5.34814
490 5.00941
495 4.83755
500 4.41805
505 4.07627
510 3.8811
515 3.84049
520 3.52989
525 3.33925
530 3.17851
535 3.2341
540 3.16567
545 3.0888
550 2.85203
555 2.86018
560 2.59541
565 2.55383
570 2.55771
575 2.39339
580 2.35656
585 2.31643
590 2.16902
595 2.07792
600 1.96535
Ex : 403
200 1.20286
205 1.39053
210 1.2705
215 1.27369
220 1.38541
225 1.28152
230 1.25292
235 1.38174
240 1.42897
245 1.4516
250 1.49321
255 1.50906
260 1.40928
265 1.5041
270 1.5532
275 1.71697
280 1.69307
285 1.884
290 1.84897
295 1.94075
300 1.99112
305 2.10991
310 2.21899
315 2.54947
320 2.56205
325 2.94602
330 3.08997
335 3.37832
340 3.72245
345 4.14093
350 4.26401
355 5.18351
360 6.11979
365 7.57908
370 9.63489
375 12.5966
380 18.6193
385 31.5193
390 1028.28
395 9999.9
400 9999.9
405 6011.55
410 738.143
415 111.197
420 31.499
425 18.7432
430 14.2319
435 11.1697
440 9.67111
445 9.5369
450 11.0883
455 11.1536
460 11.3711
465 10.2389
470 7.85218
475 6.47474
480 5.98745
485 5.52586
490 5.18999
495 4.74914
500 4.35465
505 4.31462
510 4.00448
515 3.88707
520 3.8318
525 3.55055
530 3.386
535 3.12712
540 3.2208
545 3.04655
550 2.88334
555 2.88706
560 2.91487
565 2.65
570 2.50475
575 2.34301
580 2.27648
585 2.18394
590 2.11833
595 1.99164
600 1.64826
Ex : 408
200 1.21689
205 1.26179
210 1.31107
215 1.41062
220 1.34039
225 1.31595
230 1.3797
235 1.36972
240 1.31346
245 1.51017
250 1.43013
255 1.43613
260 1.61877
265 1.56372
270 1.62118
275 1.64909
280 1.85509
285 1.7906
290 1.79428
295 1.89723
300 2.0766
305 2.15858
310 2.22506
315 2.23046
320 2.48145
325 2.73308
330 2.83945
335 3.1307
340 3.4259
345 3.92575
350 4.13246
355 4.54528
360 5.42939
365 6.32576
370 7.87854
375 9.81963
380 13.1005
385 19.8113
390 32.9895
395 1030.19
400 9999.9
405 9999.9
410 5903.79
415 725.828
420 110.252
425 31.4413
430 18.4212
435 14.4998
440 11.1173
445 9.8913
450 9.29551
455 10.442
460 11.4367
465 11.1043
470 10.147
475 8.2194
480 6.61243
485 5.74065
490 5.29782
495 4.95864
500 4.72614
505 4.19514
510 4.1328
515 3.87785
520 3.83171
525 3.65172
530 3.33084
535 3.45041
540 3.1618
545 3.07269
550 2.83044
555 2.91666
560 2.65903
565 2.83039
570 2.53934
575 2.33476
580 2.24258
585 2.1918
590 2.1043
595 2.04972
600 1.62069
Ex : 413
200 1.303
205 1.25173
210 1.20587
215 1.25983
220 1.28765
225 1.28288
230 1.26023
235 1.39838
240 1.41679
245 1.49535
250 1.38374
255 1.41536
260 1.58415
265 1.49012
270 1.61709
275 1.59094
280 1.65805
285 1.83513
290 1.9383
295 1.926
300 1.95844
305 2.02036
310 2.10294
315 2.34151
320 2.36413
325 2.59836
330 2.80898
335 2.96532
340 3.19505
345 3.66284
350 3.85005
355 4.15683
360 4.81792
365 5.42048
370 6.73591
375 8.07628
380 10.0197
385 13.8913
390 21.314
395 35.0098
400 1199.2
405 9999.9
410 9999.9
415 5980.73
420 731.821
425 111.388
430 32.3114
435 19.1277
440 14.8849
445 11.532
450 10.1784
455 9.369
460 10.3106
465 11.2341
470 10.7212
475 10.1143
480 8.33463
485 6.44266
490 5.71338
495 5.21143
500 4.64798
505 4.52241
510 4.26324
515 4.0305
520 3.88063
525 3.46557
530 3.465
535 3.31236
540 3.06053
545 2.99264
550 2.97695
555 2.72091
560 2.7384
565 2.57307
570 2.48103
575 2.42384
580 2.28133
585 2.21965
590 2.21029
595 1.95592
600 1.44047
Ex : 418
200 1.2577
205 1.30456
210 1.22727
215 1.31368
220 1.2324
225 1.2172
230 1.26661
235 1.3991
240 1.44731
245 1.37829
250 1.3768
255 1.53375
260 1.55707
265 1.55392
270 1.60706
275 1.70398
280 1.61458
285 1.82541
290 1.68515
295 1.87465
300 1.75013
305 1.83601
310 2.12256
315 2.06823
320 2.21581
325 2.52902
330 2.66861
335 2.817
340 3.14006
345 3.36057
350 3.56918
355 3.87708
360 4.39844
365 4.72212
370 5.64013
375 6.75811
380 8.18579
385 10.487
390 14.7521
395 21.4722
400 35.5785
405 1109.47
410 9999.9
415 9999.9
420 6356.66
425 776.353
430 115.964
435 33.0334
440 19.0345
445 14.8903
450 11.5986
455 10.0541
460 9.41939
465 9.88033
470 10.3473
475 10.0801
480 9.59218
485 8.66944
490 7.00045
495 5.62976
500 5.0432
505 4.74872
510 4.38099
515 4.30223
520 3.87305
525 3.72281
530 3.52118
535 3.22601
540 3.15381
545 2.95432
550 2.80617
555 2.99238
560 2.81632
565 2.67049
570 2.63575
575 2.37343
580 2.19188
585 2.21546
590 1.96937
595 1.98722
600 2.55273
Ex : 423
200 1.29307
205 1.40656
210 1.16063
215 1.36273
220 1.32998
225 1.25751
230 1.22429
235 1.35319
240 1.24069
245 1.3377
250 1.37355
255 1.48337
260 1.4629
265 1.48915
270 1.67834
275 1.72661
280 1.67717
285 1.7789
290 1.77073
295 1.78081
300 1.80043
305 1.83473
310 2.02059
315 2.32977
320 2.30864
325 2.57317
330 2.47631
335 2.7656
340 3.04134
345 3.16183
350 3.43051
355 3.66138
360 3.90487
365 4.45507
370 5.01686
375 6.09553
380 6.9321
385 8.83862
390 11.6173
395 15.8619
400 22.2999
405 37.1826
410 1216.2
415 9999.9
420 9999.9
425 6193.93
430 761.239
435 116.143
440 33.0718
445 20.3178
450 15.7008
455 11.701
460 10.2558
465 9.8428
470 9.47584
475 9.88819
480 10.0092
485 9.39236
490 8.73263
495 6.70956
500 5.45634
505 4.98199
510 4.38358
515 4.29192
520 4.15579
525 3.68732
530 3.52843
535 3.38523
540 3.37736
545 2.9341
550 3.05498
555 2.88755
560 2.81637
565 2.64994
570 2.45975
575 2.43056
580 2.28378
585 2.24062
590 2.1918
595 2.01594
600 1.57373
Ex : 428
200 1.3746
205 1.31118
210 1.22334
215 1.30958
220 1.2953
225 1.31492
230 1.33068
235 1.44484
240 1.44809
245 1.44004
250 1.45861
255 1.3963
260 1.50057
265 1.3673
270 1.54985
275 1.64659
280 1.58534
285 1.72058
290 1.73775
295 1.69526
300 1.90173
305 1.8069
310 1.86725
315 2.03356
320 2.36837
325 2.32891
330 2.50371
335 2.58412
340 2.78767
345 2.957
350 3.06326
355 3.39392
360 3.89255
365 4.30371
370 4.37637
375 5.15265
380 6.05278
385 7.22953
390 8.95917
395 11.5226
400 15.4166
405 23.0212
410 37.6406
415 1317.6
420 9999.9
425 9999.9
430 6345.64
435 777.493
440 117.249
445 33.657
450 20.6225
455 15.4294
460 12.3412
465 10.9298
470 9.73767
475 8.86336
480 9.09139
485 9.82143
490 9.33087
495 8.46149
500 7.14747
505 5.62988
510 4.80356
515 4.61565
520 4.16503
525 3.7543
530 3.79632
535 3.62461
540 3.41518
545 3.18162
550 3.10803
555 2.97572
560 2.83296
565 2.75214
570 2.48917
575 2.36335
580 2.23889
585 2.16857
590 2.05453
595 1.96209
600 1.99053
Ex : 433
200 1.21699
205 1.25975
210 1.23173
215 1.23652
220 1.3242
225 1.23518
230 1.26565
235 1.32956
240 1.36118
245 1.30697
250 1.47061
255 1.39245
260 1.33233
265 1.34841
270 1.50465
275 1.52544
280 1.60915
285 1.73729
290 1.7029
295 1.60972
300 1.78269
305 1.7922
310 1.99373
315 2.04658
320 2.10991
325 2.16983
330 2.45625
335 2.58654
340 2.843
345 2.94989
350 3.10833
355 3.14962
360 3.51148
365 3.79839
370 4.2106
375 4.9039
380 5.29314
385 6.33422
390 7.5743
395 9.2486
400 12.1256
405 15.8152
410 23.4776
415 40.0176
420 1424.96
425 9999.9
430 9999.9
435 6036.53
440 741.009
445 114.018
450 33.846
455 20.7941
460 16.3006
465 12.5521
470 10.8908
475 9.54586
480 8.77171
485 8.76691
490 9.46414
495 8.67051
500 8.14887
505 7.28291
510 5.88252
515 4.7828
520 4.32591
525 4.11895
530 3.87555
535 3.70033
540 3.46249
545 3.19685
550 3.2746
555 3.05453
560 2.84959
565 2.72745
570 2.53459
575 2.54304
580 2.381
585 2.23775
590 2.21779
595 2.0695
600 2.10725
Ex : 438
200 1.23522
205 1.30148
210 1.24004
215 1.2723
220 1.28909
225 1.29884
230 1.30393
235 1.34549
240 1.41433
245 1.4407
250 1.39591
255 1.37874
260 1.46864
265 1.36936
270 1.55214
275 1.55323
280 1.53141
285 1.63044
290 1.86702
295 1.70061
300 1.70938
305 1.89725
310 1.90253
315 1.95628
320 2.14697
325 2.17645
330 2.20436
335 2.47494
340 2.58367
345 2.9755
350 3.08156
355 3.22136
360 3.50761
365 3.80533
370 4.12318
375 4.60192
380 5.06479
385 5.6805
390 6.79388
395 8.0591
400 9.6359
405 12.3578
410 16.4497
415 24.585
420 40.8238
425 1420.77
430 9999.9
435 9999.9
440 6403.91
445 786.078
450 120.931
455 35.5168
460 22.4273
465 17.3589
470 12.8448
475 9.95561
480 9.24195
485 8.66084
490 8.48473
495 9.25253
500 8.85535
505 7.84245
510 7.27582
515 6.10177
520 5.20307
525 4.36789
530 3.89858
535 3.66396
540 3.85022
545 3.43392
550 3.29876
555 3.11782
560 2.95139
565 2.81818
570 2.66796
575 2.5962
580 2.38273
585 2.28891
590 2.13714
595 2.07789
600 1.4504
Ex : 443
200 1.29121
205 1.24506
210 1.377
215 1.38314
220 1.29178
225 1.34547
230 1.29105
235 1.34238
240 1.3317
245 1.41014
250 1.45651
255 1.44405
260 1.5012
265 1.41558
270 1.52975
275 1.62843
280 1.6445
285 1.69286
290 1.86323
295 1.80557
300 1.99563
305 1.86532
310 1.97671
315 1.99678
320 1.96237
325 2.18777
330 2.43665
335 2.59615
340 2.55429
345 2.8723
350 3.16417
355 3.39143
360 3.43989
365 3.6897
370 3.96831
375 4.41689
380 4.7339
385 5.25075
390 5.93572
395 6.75949
400 8.35404
405 9.98976
410 12.9944
415 17.6847
420 25.5979
425 42.8824
430 1585.46
435 9999.9
440 9999.9
445 6448.97
450 792.625
455 122.047
460 36.9544
465 23.4487
470 17.1978
475 12.1341
480 10.2157
485 9.34644
490 8.71684
495 8.16505
500 8.51808
505 8.35867
510 7.69108
515 7.42588
520 6.29589
525 5.23899
530 4.2131
535 4.27516
540 3.97558
545 3.4952
550 3.54159
555 3.14924
560 3.26937
565 3.0392
570 2.67129
575 2.47579
580 2.42084
585 2.45172
590 2.25799
595 2.14728
600 2.68599
Ex : 448
200 1.22975
205 1.30128
210 1.31648
215 1.48555
220 1.30526
225 1.51379
230 1.43821
235 1.36748
240 1.36039
245 1.26458
250 1.47016
255 1.3293
260 1.41537
265 1.40186
270 1.50786
275 1.4774
280 1.52027
285 1.63303
290 1.74919
295 1.74562
300 1.83079
305 1.82289
310 1.81372
315 2.03466
320 1.99568
325 2.28225
330 2.39405
335 2.49961
340 2.67903
345 2.58694
350 2.82358
355 3.05369
360 3.37275
365 3.3679
370 3.65119
375 3.78958
380 4.40908
385 4.67941
390 5.32966
395 6.37881
400 7.27043
405 8.35571
410 10.2449
415 12.947
420 17.4495
425 24.7632
430 41.9235
435 1576.29
440 9999.9
445 9999.9
450 6403.92
455 786.038
460 123.296
465 38.1382
470 22.7551
475 16.494
480 12.1058
485 9.95061
490 9.03611
495 8.5379
500 7.95623
505 7.97658
510 8.18123
515 7.69511
520 7.0305
525 6.25659
530 5.31241
535 4.44607
540 4.16752
545 3.74582
550 3.45766
555 3.39276
560 3.15911
565 3.04609
570 2.94679
575 2.66241
580 2.65305
585 2.38627
590 2.23362
595 2.20439
600 1.94529
Ex : 453
200 1.35452
205 1.35227
210 1.22874
215 1.31065
220 1.25595
225 1.41057
230 1.40909
235 1.30067
240 1.39155
245 1.43394
250 1.41808
255 1.43355
260 1.49432
265 1.49439
270 1.54679
275 1.48377
280 1.5089
285 1.54081
290 1.72861
295 1.69828
300 1.74477
305 1.74485
310 1.78715
315 1.90538
320 2.00621
325 2.14056
330 2.10025
335 2.17798
340 2.41475
345 2.48859
350 2.60625
355 2.83505
360 3.19373
365 3.25642
370 3.35934
375 3.56079
380 3.94775
385 4.20368
390 4.77051
395 5.5904
400 6.00487
405 6.77017
410 7.93354
415 9.87477
420 12.3923
425 16.6613
430 24.0275
435 40.4771
440 1581.27
445 9999.9
450 9999.9
455 5891.72
460 727.217
465 116.541
470 35.1321
475 20.6271
480 15.3538
485 11.114
490 9.21191
495 8.50604
500 7.97257
505 7.6818
510 7.26255
515 7.51647
520 7.24287
525 6.36928
530 6.04448
535 5.31788
540 4.2301
545 3.78914
550 3.51628
555 3.30761
560 3.27893
565 2.97858
570 2.84315
575 2.69371
580 2.49486
585 2.34018
590 2.25301
595 2.17767
600 1.59085
Ex : 458
200 1.27837
205 1.29351
210 1.36239
215 1.27978
220 1.3753
225 1.30802
230 1.28227
235 1.38998
240 1.43148
245 1.38887
250 1.51109
255 1.39461
260 1.5312
265 1.41012
270 1.41166
275 1.48283
280 1.45344
285 1.47382
290 1.69085
295 1.93396
300 1.86987
305 1.96709
310 2.05556
315 1.96549
320 1.98527
325 2.00149
330 2.11423
335 2.20232
340 2.26212
345 2.49983
350 2.70832
355 2.74763
360 3.0007
365 3.20303
370 3.33449
375 3.64426
380 4.03118
385 4.22783
390 4.64773
395 5.16769
400 5.57549
405 6.42302
410 7.24566
415 8.51942
420 10.2429
425 12.6652
430 16.6745
435 24.2228
440 41.8603
445 1709.72
450 9999.9
455 9999.9
460 6236.19
465 770.534
470 119.889
475 34.4857
480 20.1056
485 14.7776
490 11.112
495 8.86809
500 8.44906
505 8.09466
510 7.69646
515 7.22808
520 7.38225
525 7.26924
530 6.61268
535 6.25468
540 5.47268
545 4.57875
550 3.84035
555 3.61648
560 3.25034
565 3.20234
570 3.08705
575 2.6941
580 2.53387
585 2.31164
590 2.34358
595 2.24892
600 1.56853
Ex : 463
200 1.19138
205 1.22494
210 1.28053
215 1.34368
220 1.31991
225 1.41846
230 1.3279
235 1.29391
240 1.39411
245 1.42294
250 1.43792
255 1.56118
260 1.53027
265 1.55882
270 1.58328
275 1.48718
280 1.53346
285 1.6594
290 1.62277
295 1.65205
300 1.75493
305 1.92913
310 1.95117
315 1.98362
320 2.08913
325 2.06481
330 2.13324
335 2.31696
340 2.39334
345 2.33643
350 2.47407
355 2.69279
360 2.93586
365 2.98022
370 3.14788
375 3.40255
380 3.64502
385 4.09088
390 4.31747
395 4.78965
400 4.9095
405 5.59307
410 6.21699
415 7.07858
420 8.29686
425 10.11
430 12.5817
435 16.7599
440 24.3009
445 42.8306
450 1687.56
455 9999.9
460 9999.9
465 6403.39
470 787.004
475 118.901
480 33.7273
485 19.446
490 15.0056
495 10.7139
500 8.57378
505 8.16523
510 7.54904
515 7.15056
520 6.69049
525 6.80996
530 6.87376
535 6.20585
540 5.74296
545 5.46999
550 4.53648
555 3.96956
560 3.46125
565 3.215
570 3.02909
575 2.76083
580 2.57847
585 2.49569
590 2.12473
595 2.20961
600 1.90783
Ex : 468
200 1.35583
205 1.29969
210 1.39361
215 1.28315
220 1.35351
225 1.46785
230 1.52104
235 1.36788
240 1.34953
245 1.32936
250 1.4091
255 1.39489
260 1.35035
265 1.38978
270 1.39879
275 1.42213
280 1.55014
285 1.49868
290 1.48905
295 1.55772
300 1.65425
305 1.68496
310 1.91378
315 1.92895
320 2.0264
325 2.04469
330 1.99373
335 2.24607
340 2.28307
345 2.46709
350 2.37562
355 2.59141
360 2.86581
365 2.84231
370 3.03153
375 3.29464
380 3.34026
385 3.77534
390 3.93502
395 4.30673
400 4.68697
405 5.1807
410 5.44146
415 6.34224
420 7.08183
425 8.19962
430 9.68448
435 12.5121
440 16.7403
445 24.857
450 42.7136
455 1844.44
460 9999.9
465 9999.9
470 6373.89
475 775.703
480 116.651
485 32.605
490 19.3833
495 14.0665
500 10.0158
505 8.54548
510 7.79449
515 7.45993
520 7.05631
525 6.78285
530 6.5232
535 6.5193
540 5.93372
545 5.41886
550 5.1915
555 4.61528
560 3.9787
565 3.37228
570 3.0563
575 2.8458
580 2.81379
585 2.62656
590 2.38723
595 2.33757
600 2.92691
Ex : 473
200 1.24414
205 1.30485
210 1.41439
215 1.42074
220 1.32881
225 1.3628
230 1.71096
235 1.54752
240 1.50802
245 1.48061
250 1.35864
255 1.40636
260 1.42503
265 1.5054
270 1.53319
275 1.54769
280 1.63507
285 1.72764
290 1.60891
295 1.68373
300 1.76032
305 1.77126
310 1.86509
315 2.09416
320 2.01212
325 2.03374
330 2.08514
335 2.27383
340 2.35015
345 2.49897
350 2.59923
355 2.63215
360 2.72773
365 2.9641
370 3.09173
375 3.3237
380 3.62452
385 3.74238
390 4.19652
395 4.41764
400 4.62958
405 4.87027
410 5.22196
415 5.77587
420 6.32911
425 7.07082
430 8.36976
435 10.415
440 12.7997
445 17.9266
450 25.7179
455 45.1256
460 2013.91
465 9999.9
470 9999.9
475 6213.94
480 759.448
485 114.912
490 32.898
495 19.1977
500 13.8606
505 10.3483
510 8.52823
515 7.97284
520 7.75464
525 7.37621
530 6.56155
535 6.09326
540 6.45097
545 6.2857
550 5.55427
555 5.25489
560 4.78141
565 4.15637
570 3.44722
575 3.01239
580 2.93191
585 2.71009
590 2.59836
595 2.35294
600 2.68981
Ex : 478
200 1.30427
205 1.3154
210 1.29769
215 1.37324
220 1.37226
225 1.5149
230 1.63646
235 2.02251
240 1.6444
245 1.4431
250 1.40547
255 1.5185
260 1.57569
265 1.55529
270 1.53833
275 1.60206
280 1.5437
285 1.70132
290 1.5704
295 1.60252
300 1.83359
305 1.82424
310 2.00629
315 1.94607
320 2.11344
325 2.07605
330 2.33069
335 2.28879
340 2.33221
345 2.36743
350 2.65126
355 2.53835
360 2.76855
365 3.11446
370 3.20578
375 3.22588
380 3.64081
385 3.88845
390 4.23623
395 4.40804
400 4.7433
405 4.91605
410 5.35971
415 6.00006
420 6.34492
425 6.99304
430 8.17694
435 9.66947
440 11.4807
445 15.1687
450 20.1563
455 29.6284
460 53.7465
465 2307.99
470 9999.9
475 9999.9
480 6687.21
485 817.008
490 123.889
495 34.6682
500 20.1882
505 14.6396
510 11.0037
515 9.21789
520 8.31715
525 8.34563
530 7.77417
535 6.99904
540 6.68165
545 5.93193
550 6.2552
555 5.61846
560 4.96766
565 4.99679
570 4.10201
575 3.54162
580 2.95672
585 2.96957
590 2.63608
595 2.60767
600 3.01686
Ex : 483
200 1.35739
205 1.42221
210 1.40651
215 1.32764
220 1.44728
225 1.38322
230 1.57518
235 2.1431
240 1.88106
245 1.4154
250 1.63546
255 1.54437
260 1.43959
265 1.53421
270 1.64809
275 1.60052
280 1.68047
285 1.56655
290 1.66189
295 1.81422
300 1.72666
305 1.80782
310 1.8954
315 1.93855
320 2.21755
325 2.1403
330 2.29519
335 2.39024
340 2.30183
345 2.42575
350 2.4713
355 2.60786
360 2.65242
365 2.95888
370 2.98303
375 3.14651
380 3.41535
385 3.61985
390 4.02734
395 4.17793
400 4.52946
405 4.59607
410 5.03139
415 5.24448
420 5.96844
425 6.37411
430 7.14824
435 8.47965
440 9.54863
445 11.4974
450 15.2104
455 20.5662
460 31.2437
465 55.1703
470 1803
475 9999.9
480 9999.9
485 6768.48
490 826.458
495 123.479
500 33.9187
505 19.6266
510 14.3188
515 10.5463
520 8.98863
525 8.07465
530 7.89999
535 7.23189
540 6.64141
545 6.03437
550 5.76874
555 6.0129
560 5.50454
565 4.6081
570 4.65065
575 3.92707
580 3.4837
585 3.23027
590 2.90489
595 2.63798
600 2.26007
Ex : 488
200 1.44423
205 1.5025
210 1.36929
215 1.43367
220 1.48328
225 1.38939
230 1.37071
235 1.76349
240 2.33845
245 1.70695
250 1.53474
255 1.60757
260 1.51004
265 1.57883
270 1.63671
275 1.62268
280 1.68975
285 1.71156
290 1.76266
295 1.67834
300 1.71691
305 1.87058
310 1.78071
315 1.97048
320 1.94744
325 2.10298
330 2.23129
335 2.19853
340 2.36956
345 2.44734
350 2.54576
355 2.65701
360 2.66343
365 2.62572
370 2.97996
375 3.17692
380 3.26131
385 3.62362
390 3.77294
395 4.04476
400 4.26944
405 4.5815
410 4.88122
415 5.13539
420 5.67561
425 6.21529
430 6.91727
435 7.74596
440 8.55523
445 9.9726
450 12.7831
455 16.4559
460 23.3529
465 34.2451
470 54.7584
475 2113.77
480 9999.9
485 9999.9
490 6524.6
495 797.953
500 121.221
505 34.7787
510 20.6675
515 15.0188
520 10.8529
525 8.94946
530 8.47336
535 7.80994
540 7.52567
545 6.76429
550 6.10741
555 5.85486
560 5.66584
565 5.25534
570 4.94766
575 4.17106
580 3.81174
585 3.53436
590 2.90956
595 2.69198
600 3.09555
Ex : 493
200 1.3741
205 1.3191
210 1.53739
215 1.48978
220 1.32897
225 1.55664
230 1.60322
235 1.62299
240 2.44945
245 2.16186
250 1.62572
255 1.42796
260 1.59757
265 1.76072
270 1.51198
275 1.67728
280 1.70293
285 1.76969
290 1.86516
295 1.81967
300 1.81226
305 1.63865
310 1.89202
315 1.92375
320 1.99896
325 2.07275
330 2.23555
335 2.26258
340 2.44269
345 2.33541
350 2.4123
355 2.43055
360 2.79094
365 2.86881
370 2.94847
375 3.02518
380 3.18168
385 3.52274
390 3.71065
395 4.05978
400 4.1145
405 4.3521
410 4.88733
415 5.04254
420 5.1692
425 5.41836
430 5.86866
435 6.51797
440 7.34657
445 8.54034
450 10.1812
455 12.7057
460 16.9093
465 24.1935
470 32.8797
475 51.8675
480 2026.98
485 9999.9
490 9999.9
495 6716.27
500 817.368
505 123.3
510 34.5909
515 20.5868
520 14.5808
525 10.8335
530 9.00512
535 8.10857
540 7.98204
545 7.48183
550 6.73187
555 6.26127
560 5.63596
565 5.34872
570 5.44839
575 4.75334
580 4.16309
585 3.77584
590 3.46831
595 2.83779
600 2.64572
Ex : 498
200 1.26719
205 1.30709
210 1.40306
215 1.60154
220 1.48532
225 1.59232
230 1.62558
235 1.63696
240 2.1723
245 2.80956
250 1.80093
255 1.69541
260 1.56665
265 1.70299
270 1.81205
275 1.68286
280 1.58367
285 1.80254
290 1.83766
295 1.72303
300 1.94073
305 1.78208
310 1.98411
315 1.95348
320 2.18626
325 2.06552
330 2.14616
335 2.24592
340 2.38558
345 2.5888
350 2.77291
355 2.86872
360 2.68634
365 2.80675
370 2.93048
375 3.02059
380 3.1667
385 3.57234
390 3.59404
395 3.79612
400 4.32927
405 4.45074
410 4.72973
415 5.21026
420 5.24175
425 5.37555
430 5.79566
435 6.42896
440 7.46744
445 8.1035
450 9.61606
455 11.3362
460 14.0386
465 19.5791
470 24.9989
475 33.6611
480 55.72
485 2455.3
490 9999.9
495 9999.9
500 6620.32
505 808.377
510 122.99
515 35.0607
520 20.9634
525 15.4022
530 11.0657
535 9.34783
540 8.3264
545 7.83876
550 7.52622
555 7.08782
560 6.04394
565 5.76739
570 5.13732
575 5.15969
580 4.49409
585 4.09032
590 3.71759
595 3.55503
600 3.32561
Ex : 503
200 1.46933
205 1.48576
210 1.47667
215 1.42526
220 1.65583
225 1.5007
230 1.48606
235 1.54402
240 1.63701
245 2.86337
250 2.32502
255 1.84841
260 1.7879
265 1.77656
270 1.7282
275 1.68694
280 1.74293
285 1.8308
290 1.84388
295 1.65954
300 1.81739
305 2.08421
310 1.94062
315 2.065
320 2.10314
325 2.15716
330 2.15014
335 2.35765
340 2.29171
345 2.6347
350 2.63396
355 2.58547
360 2.64096
365 2.8464
370 2.85483
375 3.11771
380 3.24799
385 3.49554
390 3.65363
395 4.00539
400 4.22398
405 4.37609
410 4.76731
415 4.9937
420 5.39403
425 5.50014
430 5.71613
435 6.29034
440 6.92636
445 7.71542
450 8.69635
455 10.2721
460 12.3539
465 15.8383
470 20.2136
475 24.6464
480 35.574
485 58.0454
490 2405.81
495 9999.9
500 9999.9
505 7208.84
510 879.96
515 133.531
520 37.7415
525 21.8408
530 15.7914
535 11.7033
540 9.65327
545 8.60498
550 8.30473
555 7.96827
560 7.24335
565 6.49442
570 5.90928
575 5.36026
580 5.09242
585 4.54101
590 3.94076
595 3.48073
600 3.15237
Ex : 508
200 1.55068
205 1.35509
210 1.40171
215 1.49492
220 1.49037
225 1.72246
230 1.62286
235 1.55797
240 1.62136
245 2.35833
250 4.06565
255 2.09999
260 1.74766
265 1.79119
270 1.78956
275 1.75951
280 1.92456
285 1.88169
290 1.78017
295 1.88888
300 1.94946
305 1.85927
310 1.98633
315 1.9826
320 2.02513
325 2.27422
330 2.37363
335 2.25899
340 2.35566
345 2.46868
350 2.4989
355 2.6935
360 2.86248
365 2.85199
370 3.16971
375 3.08387
380 3.30704
385 3.39925
390 3.57659
395 3.83156
400 3.94318
405 4.4031
410 4.522
415 4.4842
420 5.156
425 5.43613
430 5.65379
435 6.35316
440 6.64281
445 7.20931
450 8.02438
455 9.30301
460 10.9862
465 12.9364
470 15.6881
475 19.5968
480 26.1283
485 36.4729
490 60.9623
495 2555.34
500 9999.9
505 9999.9
510 7934.22
515 965.024
520 142.992
525 38.9112
530 22.1596
535 15.9064
540 11.8922
545 9.62289
550 8.57891
555 8.09063
560 7.69116
565 7.22493
570 6.50239
575 5.84143
580 5.17362
585 4.62695
590 4.51267
595 4.04688
600 4.03576
Ex : 513
200 1.77117
205 1.49018
210 1.57129
215 1.53956
220 1.57794
225 1.62244
230 1.66677
235 1.63869
240 1.829
245 1.90036
250 6.57793
255 5.68164
260 2.16939
265 1.94293
270 1.80677
275 1.8064
280 1.84746
285 1.8305
290 1.85809
295 1.95937
300 1.85046
305 1.87708
310 2.01235
315 1.96393
320 1.97968
325 2.23349
330 2.05603
335 2.21817
340 2.33886
345 2.40668
350 2.63796
355 2.87868
360 2.8347
365 3.01892
370 3.10533
375 2.99386
380 3.07312
385 3.30391
390 3.71291
395 3.85105
400 4.27336
405 4.34099
410 4.67314
415 4.94855
420 5.19089
425 5.4502
430 5.76744
435 5.6746
440 6.40857
445 7.29482
450 7.92145
455 8.88917
460 9.87884
465 12.1052
470 13.299
475 15.6657
480 20.0567
485 26.7591
490 38.0229
495 58.8616
500 2419.34
505 9999.9
510 9999.9
515 8201.28
520 997.974
525 147.611
530 39.854
535 22.8001
540 16.6775
545 12.0835
550 9.84976
555 9.29449
560 8.44616
565 8.12417
570 7.38455
575 6.61243
580 5.84918
585 5.15955
590 4.63639
595 4.34738
600 3.4566
Ex : 518
200 1.517
205 1.64911
210 1.67366
215 1.48
220 1.58572
225 1.64668
230 1.59928
235 1.61659
240 1.67289
245 1.76942
250 5.9499
255 16.975
260 5.06202
265 2.3501
270 1.85328
275 1.77272
280 1.97207
285 1.91205
290 2.04061
295 1.94842
300 2.05668
305 2.04531
310 2.05541
315 2.2224
320 2.20399
325 2.30471
330 2.07125
335 2.29578
340 2.42698
345 2.45736
350 2.60856
355 2.69153
360 2.79569
365 3.06693
370 3.07005
375 3.09396
380 3.15924
385 3.36544
390 3.34805
395 3.93087
400 3.78564
405 4.17366
410 4.28137
415 4.50988
420 4.74937
425 4.898
430 5.38835
435 5.81712
440 5.75301
445 6.56446
450 6.89073
455 8.27991
460 9.07221
465 10.3104
470 11.1962
475 13.3307
480 15.787
485 20.1436
490 26.514
495 36.3127
500 58.2612
505 2334.12
510 9999.9
515 9999.9
520 8225.69
525 998.283
530 147.409
535 39.3431
540 22.5859
545 16.3423
550 11.6608
555 10.1028
560 8.98291
565 8.31744
570 8.05891
575 7.17239
580 6.16523
585 5.51474
590 5.06931
595 4.37743
600 3.16081
Ex : 523
200 1.58298
205 1.66029
210 1.49998
215 1.53419
220 1.52823
225 1.49784
230 1.61321
235 1.46712
240 1.52059
245 1.46529
250 2.25295
255 24.5082
260 19.3128
265 3.85815
270 2.04503
275 1.87452
280 1.88161
285 1.85675
290 2.03405
295 1.90722
300 2.09884
305 1.9224
310 2.01805
315 2.06266
320 2.12631
325 2.22848
330 2.14494
335 2.1943
340 2.23054
345 2.37778
350 2.31718
355 2.47536
360 2.59507
365 2.53318
370 3.07383
375 2.84511
380 3.17855
385 3.11091
390 3.35236
395 3.63489
400 3.7853
405 3.96982
410 4.24854
415 4.35937
420 4.73342
425 4.77976
430 4.93801
435 5.24153
440 5.79951
445 6.23513
450 6.75525
455 7.45341
460 8.25693
465 9.57079
470 10.1915
475 11.0286
480 12.7088
485 15.8287
490 20.0096
495 25.3412
500 35.3767
505 56.7465
510 2127.88
515 9999.9
520 9999.9
525 8687.25
530 1051.43
535 153.097
540 40.0543
545 22.1263
550 16.285
555 12.0401
560 9.57306
565 8.85956
570 8.12712
575 7.9758
580 6.80129
585 6.05136
590 5.54628
595 4.97105
600 3.94592
Ex : 528
200 1.63891
205 1.65207
210 1.55695
215 1.55426
220 1.39584
225 1.58199
230 1.65084
235 1.59362
240 1.80019
245 1.53035
250 1.75539
255 15.6733
260 47.1109
265 11.4478
270 2.87155
275 1.90386
280 1.92026
285 1.90797
290 1.86934
295 2.03364
300 2.0956
305 2.06705
310 2.05406
315 2.09274
320 2.03582
325 2.23391
330 2.34162
335 2.27574
340 2.22774
345 2.51181
350 2.35917
355 2.56965
360 2.6912
365 2.70961
370 2.90501
375 2.92166
380 3.21256
385 3.43751
390 3.44385
395 3.56648
400 3.65527
405 3.79472
410 4.02401
415 4.29099
420 4.43192
425 4.67532
430 4.95945
435 5.46065
440 5.70782
445 6.07438
450 6.43168
455 7.15953
460 7.81619
465 8.76854
470 9.7172
475 9.81281
480 11.4822
485 12.5949
490 15.5096
495 19.3141
500 26.1633
505 36.3371
510 56.6465
515 2056.89
520 9999.9
525 9999.9
530 8473.27
535 1029.44
540 150.004
545 39.3514
550 21.901
555 15.8649
560 11.1483
565 9.52498
570 8.69275
575 8.02112
580 7.87679
585 6.7288
590 5.84791
595 5.41224
600 4.26062
Ex : 533
200 1.64816
205 1.6646
210 1.51693
215 1.48853
220 1.59552
225 1.55738
230 1.52281
235 1.79636
240 1.60762
245 1.65868
250 1.70895
255 3.72434
260 53.3234
265 39.4514
270 6.68443
275 2.333
280 2.12197
285 2.05931
290 2.01143
295 1.99792
300 1.98977
305 2.00564
310 2.06459
315 2.05496
320 2.41779
325 2.15263
330 2.39467
335 2.43977
340 2.23969
345 2.58815
350 2.46851
355 2.66114
360 2.45018
365 2.66946
370 2.90835
375 2.95738
380 2.88283
385 3.28968
390 3.40777
395 3.09779
400 3.36358
405 3.93008
410 4.0166
415 4.20211
420 4.16482
425 4.46311
430 4.95853
435 5.34126
440 5.58104
445 5.90736
450 6.35426
455 6.51591
460 7.09845
465 8.28544
470 8.65966
475 8.79111
480 10.0329
485 10.9645
490 12.5862
495 15.1413
500 18.465
505 25.0296
510 34.5659
515 52.7531
520 1990.91
525 9999.9
530 9999.9
535 8602.9
540 1041.01
545 150.858
550 38.438
555 21.3531
560 15.1849
565 10.9799
570 8.88747
575 7.97097
580 7.7186
585 6.95407
590 6.15404
595 5.46207
600 6.53259
Ex : 538
200 1.61357
205 1.51072
210 1.71833
215 1.45518
220 1.44455
225 1.58658
230 1.77469
235 1.92795
240 1.65587
245 1.64292
250 1.64919
255 1.88522
260 23.5675
265 82.0815
270 20.7012
275 4.11208
280 2.14031
285 1.90635
290 2.05782
295 2.15611
300 2.19173
305 2.10416
310 2.1342
315 2.26066
320 2.08014
325 2.29262
330 2.41828
335 2.29589
340 2.38348
345 2.46756
350 2.34384
355 2.54771
360 2.64598
365 2.71503
370 2.82753
375 2.77306
380 2.86506
385 2.99603
390 3.4907
395 3.52616
400 3.12047
405 3.2877
410 3.71519
415 4.01338
420 3.82235
425 4.25701
430 4.55917
435 4.57858
440 4.97681
445 5.53704
450 5.96373
455 6.37796
460 7.18121
465 7.5235
470 7.52351
475 8.2736
480 8.91397
485 9.7058
490 11.2875
495 12.381
500 14.6567
505 17.9323
510 24.1332
515 33.3657
520 51.8285
525 1711.45
530 9999.9
535 9999.9
540 8965.63
545 1088.43
550 156.404
555 39.5589
560 21.0055
565 15.8099
570 10.789
575 8.58856
580 7.79421
585 7.44964
590 6.7296
595 5.89135
600 5.6145
Ex : 543
200 1.65401
205 1.57961
210 1.59951
215 1.63418
220 1.51608
225 1.69183
230 1.42789
235 1.7708
240 1.5882
245 1.77962
250 1.6796
255 1.66137
260 4.57807
265 75.5658
270 61.8636
275 9.27351
280 2.74364
285 2.13507
290 2.06376
295 2.13156
300 2.10327
305 2.20794
310 2.01136
315 2.34193
320 2.05173
325 2.159
330 2.09838
335 2.35114
340 2.51477
345 2.5082
350 2.50122
355 2.62126
360 2.57374
365 2.52772
370 2.75499
375 2.79715
380 2.81686
385 2.96808
390 3.34609
395 3.2939
400 3.31554
405 3.22667
410 3.32417
415 3.84845
420 4.08355
425 4.00208
430 4.0873
435 4.6552
440 4.99073
445 5.1642
450 6.0112
455 6.06028
460 6.45505
465 7.07539
470 7.33249
475 7.81746
480 8.11698
485 8.85451
490 9.85079
495 10.5583
500 12.4397
505 14.5561
510 18.4671
515 23.3563
520 32.4642
525 50.1388
530 1604.88
535 9999.9
540 9999.9
545 9011.18
550 1096.75
555 155.487
560 38.1757
565 20.0759
570 14.1305
575 10.07
580 7.94016
585 6.89235
590 6.72468
595 6.75637
600 6.22978
Ex : 548
200 1.6487
205 1.64527
210 1.51384
215 1.53865
220 1.51476
225 1.47125
230 1.64054
235 1.64263
240 1.60707
245 1.57393
250 1.71367
255 1.64039
260 1.93807
265 30.8357
270 108.919
275 26.3651
280 4.85795
285 2.42336
290 2.19122
295 2.1741
300 2.12902
305 2.20068
310 2.11686
315 2.18956
320 2.15549
325 2.11918
330 2.3156
335 2.27526
340 2.46117
345 2.19427
350 2.54178
355 2.36154
360 2.54986
365 2.51824
370 2.53106
375 2.62935
380 2.81281
385 2.94076
390 2.95898
395 3.1122
400 3.36041
405 3.28401
410 3.47524
415 3.34211
420 3.76925
425 4.17289
430 4.21363
435 4.26511
440 4.72701
445 5.29413
450 5.57165
455 5.83802
460 6.17268
465 6.87997
470 6.763
475 6.71364
480 7.29443
485 8.01648
490 8.68333
495 8.90712
500 10.1797
505 11.9027
510 13.9378
515 18.6371
520 23.4518
525 31.4682
530 49.7772
535 1655.98
540 9999.9
545 9999.9
550 9082.58
555 1100.74
560 156.43
565 37.9105
570 19.6322
575 13.7338
580 9.17282
585 6.93692
590 7.03608
595 7.00111
600 5.68078
Ex : 553
200 1.59284
205 1.41262
210 1.61714
215 1.59792
220 1.64366
225 1.58109
230 1.58036
235 1.56147
240 1.74271
245 1.78826
250 1.67488
255 1.78129
260 1.83385
265 5.22188
270 98.2368
275 82.9581
280 12.0459
285 2.98585
290 2.23578
295 2.09516
300 2.23198
305 2.16638
310 2.28553
315 2.23459
320 2.39578
325 2.15574
330 2.24818
335 2.5861
340 2.43372
345 2.43012
350 2.48133
355 2.60039
360 2.61958
365 2.54898
370 2.67758
375 2.79513
380 2.57178
385 2.83959
390 3.01521
395 2.89742
400 3.42006
405 3.416
410 3.6973
415 3.61286
420 3.68889
425 4.04272
430 4.17397
435 4.26305
440 4.41979
445 4.67742
450 5.10855
455 5.65127
460 6.36014
465 6.7801
470 6.86705
475 6.68265
480 7.08929
485 7.66095
490 8.36258
495 8.81329
500 9.4631
505 9.96969
510 11.9275
515 13.8948
520 17.6475
525 23.0859
530 31.1353
535 48.8557
540 1505.71
545 9999.9
550 9999.9
555 9423.05
560 1144.94
565 159.932
570 37.1095
575 18.7825
580 12.7674
585 8.76956
590 7.33252
595 7.02794
600 7.6551
Ex : 558
200 1.63928
205 1.83517
210 1.61323
215 1.85362
220 1.76678
225 1.64269
230 1.72721
235 1.78589
240 1.76649
245 1.55416
250 1.58314
255 1.63294
260 1.65738
265 1.95481
270 37.8998
275 142.674
280 35.0657
285 5.93664
290 2.62661
295 2.08637
300 2.38914
305 2.4605
310 2.13398
315 2.23547
320 2.22363
325 2.31029
330 2.25431
335 2.2963
340 2.42289
345 2.4333
350 2.41588
355 2.45621
360 2.48343
365 2.58425
370 2.68301
375 2.78153
380 2.64307
385 2.91464
390 2.76317
395 2.93083
400 3.13532
405 3.30109
410 3.46979
415 3.65234
420 3.46245
425 3.4439
430 3.72199
435 4.08371
440 4.42899
445 4.74836
450 4.95814
455 5.26571
460 5.66367
465 6.30022
470 6.50052
475 6.31584
480 6.55182
485 7.04781
490 7.43592
495 7.7356
500 8.4115
505 9.04802
510 9.70405
515 11.4648
520 13.7378
525 16.7322
530 21.626
535 30.2305
540 46.8843
545 1372.62
550 9999.9
555 9999.9
560 9077.82
565 1102.99
570 153.849
575 35.2466
580 17.2104
585 11.7695
590 8.57968
595 7.15801
600 6.69478
Ex : 563
200 1.67296
205 1.66673
210 1.66148
215 1.55566
220 1.70481
225 1.55739
230 1.50403
235 1.83987
240 1.90144
245 1.57232
250 1.64779
255 1.84995
260 1.69657
265 1.64466
270 5.97756
275 119.266
280 100.108
285 14.2233
290 3.48738
295 2.0645
300 2.17297
305 2.27275
310 2.41611
315 2.41904
320 2.28203
325 2.31045
330 2.36782
335 2.22358
340 2.55173
345 2.3395
350 2.4963
355 2.43885
360 2.49649
365 2.60274
370 2.50226
375 2.75765
380 2.74243
385 2.83409
390 2.61164
395 2.99944
400 3.18627
405 3.00185
410 3.37442
415 3.74042
420 3.77883
425 3.67847
430 3.64683
435 3.91283
440 4.28736
445 4.40075
450 4.79159
455 4.77727
460 5.54583
465 6.17619
470 6.01691
475 6.42693
480 6.5735
485 6.68771
490 7.44151
495 7.42674
500 7.92718
505 8.19008
510 8.92395
515 9.96416
520 11.4928
525 13.9313
530 17.4603
535 22.6323
540 30.8603
545 47.5852
550 1390.96
555 9999.9
560 9999.9
565 9514.3
570 1152.63
575 157.624
580 34.1007
585 16.2248
590 11.4059
595 8.10182
600 7.37004
Ex : 568
200 1.59211
205 1.52003
210 1.50722
215 1.61894
220 1.72241
225 1.60009
230 1.6566
235 1.43622
240 1.50321
245 1.74253
250 1.51626
255 1.61455
260 1.65022
265 1.88927
270 2.01529
275 40.8919
280 172.357
285 45.816
290 6.94715
295 2.72757
300 2.05479
305 2.48689
310 2.19413
315 2.43412
320 2.28878
325 2.33113
330 2.13059
335 2.63961
340 2.58007
345 2.66735
350 2.48374
355 2.2709
360 2.57677
365 2.51264
370 2.7808
375 2.58754
380 2.77166
385 2.49388
390 2.85867
395 2.80449
400 2.93646
405 2.96098
410 3.11889
415 3.30301
420 3.485
425 3.50301
430 3.85928
435 3.92573
440 4.13393
445 4.46559
450 4.63134
455 4.65138
460 5.30598
465 5.87855
470 5.89281
475 5.8075
480 6.15872
485 6.1154
490 6.35119
495 6.86663
500 7.03206
505 7.68074
510 8.29068
515 8.98685
520 9.89032
525 11.4778
530 13.5389
535 16.3143
540 21.374
545 29.0663
550 45.4793
555 1065.44
560 9999.9
565 9999.9
570 9638.38
575 1174.49
580 157.721
585 33.5253
590 15.752
595 10.8307
600 10.4688
Ex : 573
200 1.67374
205 1.52553
210 1.84694
215 1.64013
220 1.56948
225 1.65598
230 1.66303
235 1.58451
240 1.59528
245 1.69975
250 1.56887
255 1.65948
260 1.7569
265 1.8605
270 1.73726
275 5.43376
280 139.856
285 131.662
290 19.0353
295 4.10373
300 2.38392
305 2.03771
310 2.13315
315 2.07099
320 2.20388
325 2.06256
330 2.2534
335 2.26934
340 2.35863
345 2.47041
350 2.42065
355 2.50896
360 2.4114
365 2.47835
370 2.44719
375 2.3442
380 2.63606
385 2.59604
390 2.80543
395 2.95426
400 2.88956
405 2.81148
410 3.09878
415 3.28943
420 2.95473
425 3.36975
430 3.43819
435 3.46391
440 3.59707
445 4.22525
450 4.29297
455 4.47283
460 4.92717
465 5.44358
470 5.60335
475 5.69351
480 5.65633
485 5.94785
490 5.90755
495 6.2726
500 6.57645
505 7.05564
510 7.15343
515 7.6355
520 8.56736
525 9.19212
530 10.4822
535 12.582
540 16.317
545 20.8596
550 27.1715
555 41.4394
560 890.598
565 9999.9
570 9999.9
575 9278.26
580 1127.22
585 149.082
590 30.0736
595 13.8922
600 12.5918
Ex : 578
200 1.44077
205 1.54552
210 1.44055
215 1.52859
220 1.49062
225 1.56133
230 1.4683
235 1.51762
240 1.69829
245 1.75086
250 1.7087
255 1.69421
260 1.9542
265 1.47704
270 1.74738
275 1.76826
280 48.3131
285 203.668
290 55.4697
295 8.21869
300 2.6158
305 2.02433
310 2.13017
315 2.29039
320 2.08359
325 2.15767
330 2.19072
335 2.20299
340 2.30244
345 2.23356
350 2.46868
355 2.32076
360 2.30826
365 2.25459
370 2.55342
375 2.59654
380 2.36674
385 2.37839
390 2.49793
395 2.5308
400 2.95566
405 2.81935
410 3.15009
415 2.98807
420 3.0167
425 3.13076
430 3.04407
435 3.47984
440 3.28705
445 3.33849
450 3.92056
455 4.45806
460 4.61563
465 5.15235
470 5.11617
475 5.11545
480 5.58576
485 5.86105
490 5.95897
495 6.18278
500 6.24633
505 6.28508
510 6.19161
515 6.70142
520 7.13251
525 7.95591
530 8.73818
535 10.2502
540 11.8551
545 14.8123
550 19.3891
555 25.6601
560 39.6829
565 801.984
570 9999.9
575 9999.9
580 8071.8
585 975.405
590 129.899
595 27.1383
600 11.7623
Ex : 583
200 1.65925
205 1.40359
210 1.35579
215 1.37518
220 1.58328
225 1.40299
230 1.61606
235 1.41858
240 1.5347
245 1.38522
250 1.35114
255 1.38991
260 1.40399
265 1.39163
270 1.6708
275 1.62434
280 5.98036
285 160.834
290 154.914
295 21.7317
300 4.24242
305 2.24206
310 1.89935
315 2.12722
320 2.13429
325 1.95266
330 2.09478
335 1.86502
340 2.24495
345 2.08176
350 2.38374
355 2.25174
360 2.31404
365 2.24658
370 2.10161
375 2.65993
380 2.3704
385 2.34751
390 2.36845
395 2.54575
400 2.85155
405 2.76108
410 2.8281
415 2.86003
420 2.98126
425 2.84879
430 2.83584
435 2.79272
440 3.00211
445 3.41916
450 3.75598
455 3.93273
460 4.67104
465 4.90719
470 4.74626
475 4.78911
480 5.01376
485 4.8565
490 5.20667
495 5.44281
500 5.95033
505 5.72804
510 6.06819
515 6.18847
520 6.31353
525 7.17068
530 7.54654
535 8.27953
540 9.26002
545 11.3298
550 14.685
555 18.8925
560 25.2013
565 37.3527
570 707.168
575 9999.9
580 9999.9
585 7074.92
590 858.4
595 115.144
600 29.9408
Ex : 588
200 1.64099
205 1.58739
210 1.35385
215 1.31672
220 1.28006
225 1.40541
230 1.3871
235 1.46894
240 1.40594
245 1.5713
250 1.16831
255 1.33114
260 1.33704
265 1.35733
270 1.50939
275 1.5895
280 1.80864
285 53.1898
290 243.07
295 68.4863
300 9.85242
305 2.7747
310 1.92583
315 1.87804
320 2.10796
325 2.06893
330 1.92427
335 1.95643
340 2.32675
345 2.13481
350 2.03973
355 2.01775
360 2.04654
365 2.20824
370 2.18612
375 2.02967
380 2.29341
385 2.24667
390 2.36126
395 2.60166
400 2.65763
405 2.5454
410 2.40013
415 2.52326
420 2.50788
425 2.5999
430 2.68733
435 2.77951
440 2.96877
445 3.01315
450 3.5535
455 3.71988
460 4.15484
465 4.44092
470 4.76708
475 4.54362
480 4.69605
485 4.6133
490 5.08334
495 5.01986
500 5.03612
505 5.27433
510 5.83104
515 5.57834
520 5.95049
525 6.23589
530 6.96021
535 7.48053
540 8.47915
545 9.77306
550 11.3169
555 13.7568
560 17.8722
565 23.9668
570 34.5293
575 668.93
580 9999.9
585 9999.9
590 6491.1
595 784.144
600 106.476
Ex : 593
200 1.26505
205 1.32621
210 1.17161
215 1.40936
220 1.30742
225 1.13791
230 1.16094
235 1.36117
240 1.44718
245 1.30198
250 1.35164
255 1.26461
260 1.37445
265 1.44181
270 1.41931
275 1.22977
280 1.70882
285 5.66147
290 180.528
295 184.398
300 26.0286
305 4.57476
310 2.06495
315 1.72389
320 1.97789
325 1.89248
330 1.98113
335 1.94166
340 1.95031
345 2.12499
350 1.83936
355 2.01249
360 1.9652
365 2.00654
370 2.33231
375 2.22204
380 2.34867
385 2.09189
390 2.48463
395 2.59731
400 2.37172
405 2.4089
410 2.67752
415 2.61171
420 2.52823
425 2.76081
430 2.62713
435 2.80296
440 3.00961
445 3.10156
450 3.22767
455 3.46373
460 3.326
465 4.27791
470 4.59982
475 4.1707
480 4.51711
485 4.48934
490 4.62318
495 4.85401
500 4.74936
505 4.76302
510 5.07492
515 5.09308
520 5.5342
525 5.34676
530 5.81303
535 6.39623
540 6.82767
545 7.45999
550 8.8437
555 10.5491
560 13.2612
565 16.5741
570 21.0402
575 29.907
580 551.991
585 9999.9
590 9999.9
595 5645.57
600 863.969
Ex : 598
200 1.16319
205 1.23005
210 1.23423
215 1.25685
220 1.23348
225 1.48736
230 1.25057
235 1.29342
240 1.20624
245 1.3602
250 1.29675
255 1.42114
260 1.29576
265 1.37421
270 1.43442
275 1.30186
280 1.42822
285 1.76318
290 60.0959
295 284.834
300 84.7566
305 11.3913
310 2.99718
315 2.18822
320 2.02965
325 2.12388
330 1.96092
335 2.19198
340 1.78678
345 1.68336
350 2.13053
355 1.97624
360 1.82433
365 1.96356
370 2.11103
375 2.37258
380 2.33987
385 2.28274
390 2.28959
395 2.66716
400 2.42976
405 2.37182
410 2.41776
415 2.58118
420 2.47558
425 2.63042
430 2.71511
435 2.749
440 2.58211
445 3.05797
450 2.9349
455 3.40528
460 3.59443
465 3.57251
470 4.1048
475 4.66129
480 4.38384
485 4.18833
490 4.4259
495 4.47512
500 4.38472
505 4.8063
510 4.79937
515 4.74971
520 5.19096
525 5.14107
530 5.96753
535 6.05779
540 6.36456
545 7.12795
550 7.38046
555 8.3621
560 10.4568
565 12.6641
570 15.7813
575 20.0928
580 26.8192
585 582.526
590 9999.9
595 9999.9
600 9999.9
Ex : 603
200 1.04652
205 1.19987
210 1.14207
215 1.21013
220 1.26132
225 1.27157
230 1.39128
235 1.40919
240 1.24662
245 1.34601
250 1.28702
255 1.29421
260 1.32232
265 1.40761
270 1.35896
275 1.3598
280 1.35663
285 1.78155
290 6.51763
295 207.612
300 228.638
305 32.3824
310 5.14175
315 2.22673
320 1.80504
325 1.9822
330 1.76803
335 2.15883
340 1.76314
345 1.8423
350 2.03435
355 1.8238
360 1.8162
365 1.85369
370 2.10897
375 1.95722
380 2.04565
385 2.19799
390 2.42808
395 2.29792
400 2.03565
405 2.50238
410 2.25638
415 2.67185
420 2.60744
425 2.76934
430 2.66711
435 2.58299
440 2.54871
445 2.88694
450 3.25203
455 3.34065
460 3.74225
465 3.90935
470 3.73495
475 3.99126
480 4.17138
485 4.25143
490 4.22494
495 4.38739
500 4.23434
505 4.52264
510 4.42064
515 4.85597
520 4.59507
525 4.95708
530 5.35564
535 5.54717
540 5.84474
545 6.04602
550 6.70551
555 7.08317
560 8.80436
565 10.1368
570 12.283
575 14.2839
580 17.9747
585 23.126
590 510.557
595 9999.9
600 9999.9
