File format V 1.0
jeu. 12. mai 17:50:17 2016
Operator : 
Comments : 

=============================================
SpectroFluorometer parameters
Mode : 3D measurement
Data : Fluorescence
Phospho. : Ordinary
Spectrum : Fluorescence

Scan speed : 2400 nm/mn
Response : 100 ms
PM Voltage : 700 V
Shutter : On

Lambda Ex. Start : 203
Lambda Ex. End : 603
Lambda Ex. Step : 5
Ex. Slit : 5 nm

Lambda Em. Start : 200
Lambda Em. End : 600
Lambda Em. Step : 5
Em. Slit : 5 nm

Repetition : 1
Decal lambda em : 10
=============================================
DATA
Ex : 203
200 13.0549
205 11.4355
210 12.214
215 10.5282
220 12.5774
225 13.249
230 10.9361
235 10.1506
240 12.0559
245 10.4795
250 10.8823
255 14.0958
260 17.2686
265 16.8657
270 15.2832
275 13.9442
280 19.6928
285 19.363
290 22.0164
295 19.1619
300 18.7196
305 18.8361
310 18.9132
315 29.3829
320 25.8318
325 28.2597
330 34.6864
335 32.8911
340 31.06
345 35.9073
350 35.5561
355 34.5467
360 36.2912
365 34.0844
370 35.1504
375 44.0706
380 52.0143
385 45.7926
390 45.3314
395 42.3125
400 51.4018
405 43.612
410 45.8978
415 53.5594
420 52.5458
425 49.485
430 46.2566
435 41.4638
440 49.3938
445 47.3321
450 47.4122
455 46.9875
460 52.2267
465 57.9831
470 54.1579
475 52.9849
480 54.7462
485 53.8003
490 44.1272
495 39.9307
500 38.9786
505 35.8837
510 42.9491
515 37.1518
520 45.5928
525 46.3817
530 40.9172
535 36.1674
540 47.4146
545 42.324
550 41.6209
555 47.0633
560 44.3383
565 38.9055
570 43.1108
575 41.353
580 44.1065
585 32.6668
590 34.5797
595 38.7387
600 12.6057
Ex : 208
200 11.2431
205 13.5695
210 11.8732
215 14.7043
220 10.9667
225 13.3197
230 13.0033
235 12.2767
240 12.4353
245 9.95961
250 12.1776
255 16.3118
260 11.7469
265 12.8523
270 15.2613
275 15.4439
280 19.9787
285 20.9454
290 16.3103
295 22.0338
300 20.5537
305 21.7399
310 23.7587
315 23.8707
320 26.2796
325 26.0568
330 33.4039
335 31.1916
340 34.6226
345 41.6255
350 37.5264
355 38.4345
360 38.7708
365 40.8529
370 41.5202
375 40.806
380 37.0327
385 41.0997
390 42.3042
395 47.814
400 49.3968
405 53.0149
410 53.1267
415 45.3457
420 46.6939
425 52.2715
430 43.3189
435 50.4908
440 45.6487
445 48.3087
450 46.0227
455 44.4723
460 52.4058
465 58.3845
470 51.1685
475 48.5491
480 50.4679
485 47.5198
490 42.3344
495 45.9395
500 46.5857
505 42.8087
510 42.4668
515 46.1609
520 39.9931
525 48.3849
530 39.9042
535 37.6592
540 43.719
545 42.7959
550 43.2514
555 44.3263
560 45.1541
565 50.1441
570 48.1144
575 43.5344
580 45.452
585 36.4916
590 33.0449
595 30.3569
600 22.5079
Ex : 213
200 11.2077
205 12.1817
210 12.2539
215 12.433
220 11.2942
225 12.005
230 14.6025
235 16.5945
240 12.897
245 11.3668
250 10.0745
255 10.8247
260 10.6184
265 13.3559
270 15.6134
275 18.6765
280 16.8529
285 14.6343
290 18.8703
295 25.6216
300 25.1434
305 26.4257
310 31.0987
315 24.0916
320 33.4327
325 31.0168
330 28.5478
335 34.6563
340 38.2169
345 32.6655
350 34.2912
355 36.2414
360 37.7003
365 44.9571
370 41.2108
375 38.3757
380 36.6609
385 43.0523
390 43.5298
395 38.088
400 54.0135
405 55.7689
410 50.8939
415 51.3405
420 51.1408
425 47.4003
430 44.9121
435 48.1843
440 47.1099
445 48.4811
450 52.1074
455 46.8176
460 58.1734
465 58.8752
470 50.7264
475 49.8295
480 51.1909
485 46.9065
490 45.1769
495 47.1787
500 39.8904
505 41.9362
510 44.9468
515 44.7812
520 39.264
525 37.5734
530 39.2391
535 40.9262
540 46.8828
545 40.7206
550 49.88
555 50.0971
560 44.0217
565 51.6188
570 46.8926
575 41.4933
580 36.6793
585 36.9934
590 32.875
595 41.6433
600 17.8547
Ex : 218
200 9.71271
205 8.56496
210 7.80776
215 9.2981
220 13.0688
225 8.8082
230 8.38902
235 10.7895
240 8.11732
245 10.1683
250 14.4451
255 11.1236
260 13.9157
265 16.9587
270 16.9531
275 17.0739
280 16.2589
285 18.2549
290 21.9509
295 27.4359
300 24.5868
305 22.0941
310 26.1448
315 28.665
320 28.526
325 31.3432
330 28.2042
335 31.2136
340 33.973
345 45.9933
350 36.7061
355 38.8497
360 34.8603
365 39.146
370 41.3171
375 44.0913
380 36.7387
385 43.8309
390 48.9815
395 52.7407
400 47.0836
405 51.1557
410 48.4414
415 41.3255
420 46.3794
425 46.9505
430 42.5531
435 44.4437
440 45.5754
445 46.5675
450 45.2665
455 45.641
460 56.5747
465 57.8826
470 51.0382
475 46.2894
480 43.2958
485 40.7439
490 35.7243
495 41.6864
500 39.6979
505 42.5331
510 42.8953
515 38.1751
520 36.9084
525 36.5278
530 37.3636
535 38.8638
540 40.8601
545 44.8309
550 44.3272
555 49.3151
560 54.567
565 52.1632
570 44.6218
575 39.8613
580 38.9673
585 35.5753
590 30.1938
595 30.6468
600 28.8329
Ex : 223
200 10.4751
205 10.1211
210 11.968
215 12.8269
220 18.7702
225 17.5445
230 8.19549
235 10.0779
240 11.7273
245 10.6252
250 13.3299
255 10.9744
260 10.8907
265 12.7987
270 13.8958
275 15.793
280 16.9983
285 22.236
290 25.7957
295 22.7181
300 23.6225
305 25.3168
310 27.1583
315 28.4981
320 26.1184
325 33.6558
330 36.9224
335 29.1812
340 31.082
345 31.8715
350 38.3403
355 39.2098
360 35.6839
365 36.5469
370 40.3105
375 44.9535
380 50.7409
385 43.9941
390 49.741
395 44.5988
400 43.9795
405 41.576
410 47.7597
415 44.6984
420 43.9645
425 39.1701
430 39.8409
435 40.0152
440 41.9373
445 43.2694
450 48.3338
455 45.18
460 47.8843
465 51.592
470 50.2944
475 39.4745
480 52.8342
485 42.7012
490 42.1114
495 46.3649
500 43.4021
505 47.1974
510 41.9558
515 36.7159
520 36.7105
525 36.6907
530 43.5626
535 45.0409
540 37.6981
545 42.8003
550 47.8417
555 46.9279
560 43.9421
565 50.8305
570 40.1699
575 45.1206
580 38.9159
585 42.4649
590 40.2854
595 34.6445
600 44.9293
Ex : 228
200 11.2353
205 10.0748
210 9.19181
215 10.0976
220 10.1159
225 14.2798
230 14.0182
235 13.0019
240 9.74172
245 12.4622
250 14.4886
255 10.7959
260 11.8976
265 13.4338
270 16.6984
275 15.1933
280 20.7408
285 23.0506
290 22.0465
295 23.2907
300 20.6181
305 22.8451
310 24.4824
315 28.5286
320 25.1928
325 27.8347
330 36.7747
335 34.0644
340 32.1109
345 35.873
350 38.7527
355 34.7506
360 36.1204
365 38.4862
370 43.6512
375 38.0437
380 41.9232
385 39.8207
390 39.4312
395 39.4162
400 43.6573
405 40.4559
410 45.2348
415 46.3867
420 45.6674
425 44.595
430 41.674
435 42.9042
440 38.8939
445 40.1093
450 59.0491
455 88.1992
460 102.147
465 63.2222
470 55.1244
475 47.8305
480 45.4524
485 39.4403
490 41.1717
495 43.9052
500 38.4471
505 33.7392
510 33.7384
515 32.1707
520 36.5697
525 36.2359
530 37.0501
535 36.9609
540 39.2804
545 49.3137
550 41.423
555 41.8411
560 50.1706
565 39.8997
570 37.1815
575 42.1131
580 38.4468
585 40.7749
590 33.273
595 31.2833
600 16.3213
Ex : 233
200 11
205 9.98605
210 11.4727
215 8.68416
220 13.4727
225 23.188
230 33.5688
235 18.9783
240 9.83875
245 8.07509
250 9.86671
255 10.1407
260 11.4561
265 11.793
270 17.6747
275 14.1163
280 17.3345
285 19.7249
290 21.8053
295 22.5414
300 22.9679
305 24.1263
310 27.4421
315 24.4752
320 34.6608
325 28.5571
330 33.0002
335 28.2023
340 34.3392
345 33.0067
350 37.7041
355 34.8968
360 33.0688
365 35.4695
370 36.9925
375 38.5452
380 39.5534
385 35.3711
390 42.2308
395 40.2726
400 45.6924
405 43.0204
410 37.555
415 41.2635
420 35.908
425 36.5658
430 36.2809
435 35.9567
440 30.2153
445 39.6343
450 40.3601
455 81.634
460 224.533
465 321.827
470 261.227
475 85.2479
480 47.8871
485 46.4914
490 40.6231
495 41.6694
500 41.2758
505 38.0255
510 42.7373
515 33.4463
520 31.2497
525 33.9276
530 34.3255
535 37.3963
540 38.4645
545 38.2024
550 49.688
555 41.1025
560 44.3609
565 39.5335
570 37.6643
575 45.7572
580 34.3673
585 39.1959
590 34.4188
595 36.7148
600 55.2233
Ex : 238
200 7.64516
205 7.97017
210 7.90834
215 8.10166
220 11.3672
225 11.2828
230 59.6298
235 106.147
240 32.6693
245 10.4759
250 9.53658
255 10.9343
260 13.1531
265 10.8652
270 16.3434
275 12.3
280 17.7909
285 22.009
290 19.7768
295 19.027
300 17.0126
305 17.5814
310 24.9272
315 22.4705
320 29.8823
325 27.1295
330 27.3743
335 32.8727
340 34.4021
345 31.1766
350 33.5908
355 29.8736
360 37.094
365 33.6731
370 33.5815
375 37.8056
380 33.2661
385 37.6183
390 36.7446
395 41.5457
400 38.3212
405 38.4661
410 34.7781
415 38.8466
420 37.8799
425 39.4381
430 35.8438
435 32.8096
440 38.1562
445 41.1062
450 34.7365
455 33.9883
460 51.2304
465 211.455
470 523.751
475 628.117
480 429.582
485 113.813
490 49.129
495 36.8251
500 30.2394
505 39.8148
510 43.1036
515 44.3926
520 40.2487
525 35.9726
530 40.1463
535 39.8178
540 38.1826
545 38.4552
550 43.1189
555 39.8865
560 46.1831
565 40.9235
570 48.6098
575 46.6529
580 37.5158
585 37.0162
590 35.1101
595 31.3865
600 22.3592
Ex : 243
200 7.96053
205 9.46655
210 7.06603
215 7.47441
220 7.4417
225 8.06349
230 14.0954
235 99.5295
240 159.352
245 41.5915
250 11.6119
255 9.86795
260 10.3045
265 9.14545
270 11.5933
275 14.5588
280 17.0594
285 16.1538
290 17.319
295 21.157
300 16.8185
305 20.5272
310 19.407
315 27.0459
320 26.9932
325 26.2914
330 25.7941
335 25.3352
340 26.7826
345 25.9318
350 30.302
355 27.2276
360 27.5015
365 27.4638
370 28.5963
375 31.69
380 34.6089
385 32.1309
390 33.2972
395 34.038
400 32.361
405 36.6512
410 33.5613
415 32.646
420 28.3602
425 28.2291
430 32.8318
435 32.4479
440 25.6743
445 31.8601
450 32.0281
455 33.0337
460 35.3576
465 40.1768
470 77.08
475 371.52
480 858.251
485 973.07
490 511.682
495 116.835
500 42.3308
505 32.1841
510 35.7084
515 37.0155
520 38.5505
525 43.107
530 37.6263
535 38.8941
540 39.6126
545 44.0674
550 42.089
555 38.1148
560 38.7653
565 44.7423
570 38.5537
575 38.0936
580 34.2874
585 33.5259
590 30.6124
595 31.0487
600 35.7689
Ex : 248
200 7.73224
205 7.2072
210 3.46639
215 5.37299
220 5.11589
225 5.40996
230 3.80792
235 16.0275
240 139.803
245 198.06
250 51.3647
255 14.9186
260 10.9066
265 12.5121
270 15.2702
275 13.1652
280 13.9372
285 15.0934
290 17.635
295 17.7895
300 17.9615
305 18.2245
310 21.0209
315 21.5768
320 21.3293
325 20.7278
330 23.9247
335 24.0235
340 24.6953
345 24.4327
350 26.5613
355 24.8713
360 24.0749
365 25.4284
370 27.6141
375 26.1155
380 26.7128
385 28.5507
390 29.9281
395 28.2055
400 29.9539
405 28.0051
410 30.4972
415 26.6342
420 30.3691
425 25.2255
430 27.1868
435 27.2706
440 27.327
445 30.5553
450 29.7263
455 29.3036
460 31.0697
465 34.3864
470 31.7103
475 29.2619
480 100.236
485 534.441
490 1454.71
495 1429.76
500 542.03
505 114.076
510 43.9844
515 36.7893
520 37.1775
525 38.1802
530 45.4583
535 43.1966
540 44.778
545 40.8954
550 41.2257
555 43.4311
560 39.2656
565 38.5495
570 36.6876
575 34.2326
580 36.5083
585 33.9543
590 29.1584
595 26.8699
600 11.9197
Ex : 253
200 3.32328
205 5.3326
210 4.1362
215 4.44794
220 3.89911
225 5.42287
230 5.8398
235 5.31024
240 15.9463
245 158.765
250 281.086
255 103.199
260 20.0729
265 13.1064
270 11.7904
275 13.1474
280 15.7497
285 16.3551
290 14.9188
295 14.8862
300 18.5892
305 17.1333
310 17.9108
315 19.9056
320 21.1316
325 19.6402
330 19.8172
335 21.5158
340 21.1563
345 22.5092
350 22.9331
355 22.7557
360 21.8482
365 21.5126
370 22.4515
375 22.2222
380 23.1835
385 23.2079
390 22.6497
395 23.0918
400 24.5628
405 25.2828
410 27.9167
415 25.2704
420 22.9784
425 22.6207
430 21.1583
435 21.3039
440 23.2753
445 21.9912
450 22.4795
455 22.8634
460 26.1553
465 27.3712
470 25.8501
475 24.2448
480 22.5243
485 24.6884
490 107.279
495 600.161
500 1630.71
505 1905.43
510 1076
515 226.399
520 69.8014
525 44.2249
530 41.6057
535 40.1057
540 41.1207
545 46.6325
550 46.7002
555 40.6658
560 43.3867
565 37.4619
570 36.8926
575 33.8767
580 33.1591
585 31.8497
590 29.3414
595 25.2357
600 27.0037
Ex : 258
200 4.41584
205 3.4416
210 2.79345
215 4.72689
220 4.17119
225 3.86789
230 5.10164
235 4.50263
240 6.12157
245 22.1375
250 395.016
255 1007.84
260 286.49
265 43.8991
270 16.4286
275 18.7368
280 19.6072
285 17.1633
290 16.5495
295 15.301
300 18.8197
305 17.4163
310 19.1021
315 21.0453
320 18.0188
325 19.7102
330 20.6466
335 20.3222
340 23.4135
345 20.3796
350 18.6567
355 21.6151
360 21.4461
365 19.6929
370 20.3817
375 18.7514
380 20.1157
385 19.6675
390 19.7873
395 18.9573
400 19.313
405 21.1276
410 19.9438
415 19.2654
420 17.5537
425 17.774
430 16.6219
435 18.1472
440 18.8338
445 17.6282
450 20.4795
455 19.6421
460 20.9615
465 23.2625
470 23.0388
475 20.8099
480 21.9233
485 20.0163
490 23.5437
495 27.2307
500 127.802
505 1147.65
510 3982.26
515 5218.66
520 2725.7
525 487.961
530 102.303
535 55.8331
540 47.2066
545 42.3337
550 49.8096
555 49.3137
560 50.7388
565 49.0291
570 40.4093
575 37.7262
580 34.8547
585 33.6355
590 30.5174
595 29.2606
600 15.2302
Ex : 263
200 4.25
205 3.18212
210 4.39215
215 4.09793
220 3.87334
225 4.80777
230 3.66852
235 4.33897
240 4.92929
245 4.76062
250 57.3353
255 1050.73
260 1963.71
265 548.183
270 81.6087
275 24.5123
280 22.5813
285 22.8191
290 21.2608
295 20.7354
300 23.0128
305 19.7598
310 20.7051
315 20.2709
320 20.9791
325 19.0762
330 18.5317
335 20.7926
340 19.6544
345 21.2212
350 23.2122
355 19.1791
360 18.71
365 18.8242
370 18.3533
375 15.4266
380 16.6514
385 19.4029
390 17.6281
395 19.1066
400 18.2208
405 16.8954
410 17.9052
415 19.189
420 17.4002
425 15.9784
430 17.956
435 17.3119
440 16.7577
445 15.5097
450 16.3795
455 16.6944
460 19.7093
465 19.8218
470 21.8142
475 17.9714
480 17.4752
485 19.9101
490 18.7333
495 21.6215
500 22.2724
505 28.7693
510 427.497
515 3313.33
520 9773.04
525 9999.9
530 4735.98
535 795.984
540 151.836
545 68.8351
550 52.3166
555 49.0068
560 48.6982
565 55.8547
570 53.8924
575 49.6904
580 44.0928
585 38.568
590 34.6953
595 32.4756
600 22.3481
Ex : 268
200 3.83116
205 3.53812
210 4.21731
215 2.7844
220 3.27796
225 3.39852
230 5.07887
235 4.35653
240 3.63229
245 5.08853
250 6.32757
255 102.272
260 1818.16
265 3529.88
270 1010.59
275 139.087
280 36.9057
285 27.657
290 28.7421
295 25.2562
300 25.7057
305 22.5733
310 21.8521
315 22.2546
320 21.2772
325 19.6801
330 19.3901
335 20.1756
340 19.4764
345 17.7364
350 18.6477
355 19.0311
360 17.057
365 16.0747
370 16.4717
375 16.2326
380 15.9343
385 16.1449
390 16.3265
395 17.0404
400 15.9489
405 16.3644
410 17.2868
415 16.2179
420 16.6726
425 15.6317
430 16.4856
435 15.9002
440 14.5217
445 17.6675
450 17.1178
455 15.1731
460 16.9038
465 18.7851
470 17.4626
475 15.6111
480 16.7446
485 18.475
490 17.8566
495 18.8973
500 21.517
505 21.84
510 26.7176
515 36.9624
520 715.512
525 5720.61
530 9999.9
535 9999.9
540 6502.81
545 1113.26
550 196.837
555 81.6281
560 63.3916
565 54.6068
570 53.5413
575 56.4583
580 56.9178
585 56.8478
590 48.3333
595 41.3423
600 29.7664
Ex : 273
200 3.75428
205 3.33994
210 3.97847
215 3.83336
220 3.41982
225 3.69659
230 3.52661
235 4.30576
240 4.22539
245 5.77647
250 7.2288
255 9.85007
260 164.624
265 3125.62
270 5631.88
275 1434.34
280 195.262
285 46.6634
290 34.8451
295 33.3573
300 30.2388
305 26.1314
310 23.5793
315 23.1504
320 21.9266
325 20.4406
330 21.782
335 20.9084
340 19.7996
345 19.0336
350 18.5445
355 17.555
360 18.8671
365 17.5999
370 15.5852
375 16.4759
380 16.0906
385 15.0356
390 15.9261
395 14.597
400 14.2468
405 14.9094
410 14.6459
415 14.4951
420 15.3667
425 15.8019
430 15.0782
435 15.2463
440 14.4375
445 14.2528
450 14.5047
455 14.153
460 16.4032
465 17.2317
470 15.808
475 16.0391
480 16.4863
485 17.9597
490 17.0567
495 18.4028
500 18.253
505 18.332
510 23.4726
515 26.6815
520 32.8482
525 54.3328
530 1236.1
535 9041.24
540 9999.9
545 9999.9
550 7760.96
555 1291.33
560 231.074
565 95.3493
570 69.3188
575 61.7768
580 56.272
585 54.928
590 56.3211
595 55.8381
600 67.6499
Ex : 278
200 3.30393
205 3.45724
210 3.82645
215 3.00935
220 4.08521
225 4.04865
230 4.45579
235 4.574
240 4.96057
245 5.74944
250 6.9513
255 8.17606
260 11.7892
265 238.1
270 4439.65
275 7557.34
280 1909.58
285 255.965
290 57.4191
295 32.8684
300 32.9385
305 29.1633
310 23.9428
315 22.7083
320 21.0465
325 22.0323
330 20.4881
335 20.4916
340 18.3641
345 18.9401
350 17.7689
355 17.055
360 17.2512
365 15.4041
370 14.2309
375 14.1907
380 14.448
385 15.4434
390 14.9352
395 13.8847
400 14.3823
405 15.3949
410 14.4824
415 14.6919
420 14.3211
425 14.6145
430 15.0996
435 13.714
440 14.231
445 14.5301
450 14.9158
455 15.0756
460 15.3704
465 16.4432
470 16.9361
475 15.9357
480 14.8441
485 14.5164
490 15.7413
495 15.979
500 16.8172
505 17.4958
510 18.8089
515 22.2581
520 25.9122
525 31.3211
530 40.5877
535 72.3966
540 1763.25
545 9999.9
550 9999.9
555 9999.9
560 8440.46
565 1415.74
570 247.918
575 97.923
580 68.539
585 57.3163
590 53.593
595 49.8766
600 42.1237
Ex : 283
200 3.28992
205 3.6573
210 3.2181
215 3.18071
220 3.72244
225 4.37055
230 3.94896
235 4.71815
240 5.53881
245 5.39176
250 6.43631
255 6.83944
260 9.19156
265 14.1966
270 332.829
275 5647.73
280 8849.31
285 2300.55
290 298.233
295 59.0266
300 30.4357
305 28.3578
310 25.935
315 21.591
320 20.6176
325 20.0628
330 18.5567
335 19.2278
340 18.5873
345 18.8213
350 17.6206
355 16.3351
360 16.075
365 15.3447
370 14.4228
375 14.4704
380 13.7814
385 14.3266
390 14.3624
395 14.6087
400 15.0333
405 14.119
410 13.7086
415 13.323
420 14.0099
425 13.3175
430 13.3085
435 13.3946
440 13.0959
445 13.9562
450 13.0657
455 13.0089
460 14.4437
465 13.5758
470 14.4595
475 13.8147
480 13.9574
485 13.9493
490 14.0829
495 14.4525
500 16.1848
505 15.4214
510 16.9318
515 18.4926
520 21.2058
525 24.8035
530 27.2232
535 33.5183
540 44.9887
545 84.6181
550 2292.93
555 9999.9
560 9999.9
565 9999.9
570 8578.25
575 1402.64
580 238.373
585 87.004
590 60.28
595 48.566
600 40.179
Ex : 288
200 3.47291
205 3.0673
210 3.68932
215 3.4345
220 4.15455
225 4.13922
230 3.95042
235 3.88338
240 4.84316
245 5.40643
250 5.72949
255 6.05657
260 7.14153
265 9.7287
270 16.1792
275 379.338
280 6641.5
285 9999.9
290 2575.27
295 330.753
300 63.9122
305 29.6901
310 26.3271
315 25.9359
320 22.3766
325 19.49
330 17.9218
335 17.4905
340 17.6024
345 17.6479
350 16.1745
355 14.4717
360 15.2463
365 14.4992
370 13.4093
375 13.9324
380 13.75
385 14.1315
390 14.172
395 13.975
400 13.5384
405 12.9068
410 13.3927
415 13.2194
420 12.8189
425 11.912
430 12.6891
435 12.494
440 11.6092
445 12.1954
450 12.4128
455 12.3754
460 12.6596
465 13.6968
470 13.6556
475 12.4564
480 12.8973
485 13.2048
490 12.977
495 13.5959
500 14.1486
505 14.6778
510 14.7983
515 15.6398
520 16.8742
525 17.7091
530 19.718
535 22.8579
540 28.032
545 36.4146
550 49.2106
555 88.5652
560 2503.23
565 9999.9
570 9999.9
575 9999.9
580 8260.6
585 1291.5
590 216.135
595 78.3208
600 58.8665
Ex : 293
200 3.28474
205 2.8838
210 3.49265
215 3.58543
220 3.69953
225 3.35336
230 3.63491
235 3.57402
240 4.40538
245 4.58253
250 5.16353
255 5.35195
260 6.63244
265 7.69085
270 11.5782
275 19.2172
280 486.619
285 7701.79
290 9999.9
295 2619.97
300 335.178
305 62.6253
310 29.6531
315 26.2069
320 25.9504
325 21.9729
330 18.2715
335 16.8868
340 16.1755
345 16.4523
350 16.1005
355 14.8165
360 14.6226
365 14.5606
370 13.1342
375 12.4507
380 12.8399
385 12.7272
390 13.2544
395 11.9618
400 12.5235
405 12.6432
410 13.1075
415 12.0811
420 12.2439
425 11.5076
430 11.6627
435 11.6434
440 11.3777
445 11.6148
450 11.6024
455 10.9873
460 11.8804
465 12.5742
470 11.5597
475 11.0939
480 11.1508
485 10.9005
490 10.7763
495 11.6426
500 11.7157
505 12.287
510 12.2799
515 13.2219
520 13.7485
525 14.744
530 15.8172
535 17.3673
540 19.8129
545 24.4247
550 29.0179
555 38.3438
560 51.2534
565 100.572
570 2821.41
575 9999.9
580 9999.9
585 9999.9
590 7044.82
595 1062.24
600 193.187
Ex : 298
200 2.98759
205 3.38291
210 3.16854
215 3.3007
220 3.08449
225 2.79436
230 2.89844
235 3.49371
240 3.73174
245 4.17376
250 4.80898
255 4.78369
260 5.34008
265 6.31356
270 8.02993
275 11.2026
280 20.3182
285 536.911
290 8650.28
295 9999.9
300 2767.55
305 354.03
310 66.4808
315 28.4673
320 25.1747
325 27.3303
330 21.9031
335 17.3261
340 16.711
345 15.724
350 15.6992
355 13.7965
360 13.4197
365 13.7027
370 12.5632
375 12.0571
380 12.7077
385 11.7694
390 12.3461
395 12.3867
400 12.473
405 11.8955
410 11.6849
415 11.8118
420 10.8699
425 10.6839
430 10.3418
435 10.2409
440 10.5066
445 10.7001
450 10.9378
455 9.98675
460 10.4244
465 10.3898
470 10.4483
475 10.8693
480 9.89971
485 10.8327
490 10.9929
495 10.8358
500 10.6695
505 9.84715
510 10.2702
515 11.8855
520 11.5962
525 11.4193
530 13.0987
535 13.9685
540 15.6878
545 17.6438
550 20.3504
555 25.0357
560 28.8321
565 37.2301
570 50.8115
575 109.741
580 3203.92
585 9999.9
590 9999.9
595 9999.9
600 9999.9
Ex : 303
200 3.15499
205 2.88562
210 2.81951
215 2.61185
220 3.03044
225 3.22323
230 3.16322
235 3.6978
240 3.67872
245 4.00948
250 3.57371
255 4.11488
260 4.68717
265 6.20299
270 7.16145
275 8.79947
280 13.5799
285 21.4511
290 585.246
295 9457.99
300 9999.9
305 2856.29
310 365.6
315 68.6667
320 28.6763
325 24.8314
330 25.9135
335 21.6112
340 17.1306
345 15.0785
350 14.0604
355 12.8624
360 12.6153
365 12.3013
370 12.6435
375 11.8024
380 10.9172
385 11.4711
390 11.8816
395 11.6627
400 11.2844
405 11.8148
410 11.6991
415 11.1689
420 10.251
425 10.5557
430 10.0793
435 9.23506
440 9.09401
445 10.0082
450 9.92065
455 9.59988
460 9.33717
465 9.98511
470 9.91658
475 9.65521
480 9.40679
485 9.44588
490 9.8458
495 9.08119
500 9.21613
505 9.28958
510 9.4481
515 9.57472
520 9.80492
525 10.1138
530 11.391
535 11.9763
540 12.9798
545 13.8748
550 15.3909
555 17.5201
560 19.6943
565 24.1838
570 28.6854
575 37.1902
580 50.6734
585 117.521
590 3463.71
595 9999.9
600 9999.9
Ex : 308
200 2.94101
205 2.91919
210 2.70773
215 2.8354
220 2.94451
225 2.93969
230 2.93159
235 3.09326
240 3.15839
245 3.23293
250 3.65973
255 4.18741
260 4.11212
265 4.99966
270 5.54724
275 7.317
280 9.48656
285 12.9906
290 22.8504
295 683.7
300 9999.9
305 9999.9
310 2943.47
315 376.379
320 70.6133
325 29.882
330 23.7946
335 24.7795
340 22.1605
345 17.0365
350 14.1974
355 12.7995
360 12.2018
365 11.721
370 11.316
375 10.967
380 10.8434
385 10.8108
390 11.5441
395 10.8088
400 10.6943
405 10.4158
410 10.1699
415 9.86879
420 10.0567
425 9.71382
430 9.18815
435 8.879
440 9.0841
445 8.77472
450 8.34101
455 8.73973
460 9.15973
465 9.37112
470 9.31488
475 9.00104
480 8.40729
485 8.5249
490 8.69077
495 8.79555
500 8.16745
505 8.38694
510 8.56104
515 8.72068
520 8.8486
525 9.47661
530 9.72573
535 10.1852
540 11.2854
545 11.5089
550 12.7552
555 13.6991
560 15.2964
565 16.4777
570 20.4444
575 23.7823
580 27.8735
585 34.9846
590 48.4192
595 133.947
600 560.048
Ex : 313
200 2.82136
205 2.41941
210 2.64594
215 2.62374
220 2.98412
225 2.87322
230 2.84696
235 2.9268
240 3.41771
245 3.15336
250 3.37365
255 3.70712
260 3.92348
265 4.24363
270 4.99243
275 5.63864
280 7.26616
285 10.0138
290 13.7696
295 23.2729
300 703.126
305 9999.9
310 9999.9
315 3105.06
320 396.534
325 73.4343
330 29.1724
335 22.7753
340 23.8163
345 22.0895
350 16.7722
355 13.7766
360 12.3758
365 12.2195
370 11.7877
375 10.6583
380 10.5826
385 10.0286
390 9.9358
395 9.99309
400 9.86589
405 9.53006
410 9.56108
415 9.06584
420 8.92442
425 8.50717
430 8.39811
435 7.97287
440 7.88159
445 8.22168
450 7.86046
455 8.31515
460 7.8815
465 8.56648
470 8.37199
475 7.68206
480 8.16257
485 7.4103
490 7.68252
495 7.7902
500 7.87679
505 7.80298
510 7.91685
515 8.04705
520 7.55617
525 8.24986
530 8.41435
535 8.48584
540 9.44057
545 10.0409
550 10.5662
555 11.1507
560 12.2689
565 12.8637
570 14.3981
575 16.8283
580 18.5548
585 22.7321
590 27.5715
595 33.1531
600 41.5316
Ex : 318
200 2.44293
205 2.64048
210 2.5101
215 2.80179
220 2.95417
225 2.92613
230 3.04871
235 2.90866
240 3.21592
245 3.05297
250 3.41105
255 3.88988
260 3.61837
265 4.15862
270 4.58644
275 5.63903
280 6.67274
285 7.93231
290 10.4396
295 15.2114
300 25.324
305 882.156
310 9999.9
315 9999.9
320 3260.32
325 415.18
330 75.0737
335 30.3266
340 21.5217
345 22.6156
350 22.1456
355 18.3644
360 13.645
365 12.4417
370 11.2417
375 11.3706
380 11.2333
385 10.2891
390 10.5496
395 9.54582
400 9.6351
405 9.71567
410 8.89961
415 9.05773
420 8.59555
425 8.55037
430 7.94099
435 8.2918
440 8.13811
445 7.6796
450 7.90409
455 7.93805
460 8.20814
465 7.89877
470 8.15182
475 7.31086
480 7.28911
485 7.23455
490 7.43263
495 7.2476
500 7.37317
505 7.03834
510 7.31455
515 7.30245
520 7.15513
525 7.0072
530 7.45884
535 7.72805
540 8.11459
545 8.98177
550 9.02002
555 9.31227
560 10.2887
565 10.9947
570 11.8473
575 13.2436
580 14.0817
585 15.9985
590 17.6981
595 22.0517
600 24.2509
Ex : 323
200 2.75789
205 2.3592
210 2.60936
215 2.70955
220 2.73586
225 2.52749
230 2.58351
235 2.75468
240 2.79075
245 2.94654
250 3.47905
255 3.41285
260 3.49612
265 3.8345
270 4.20369
275 4.89957
280 5.57873
285 6.47159
290 7.96305
295 10.5977
300 15.4744
305 26.3996
310 900.397
315 9999.9
320 9999.9
325 3641.68
330 460.001
335 81.5962
340 30.7074
345 21.253
350 21.8486
355 20.9083
360 18.6748
365 14.0603
370 12.2679
375 11.8317
380 10.4018
385 10.0862
390 10.0105
395 9.92102
400 9.6528
405 8.68457
410 8.72461
415 8.57025
420 8.46039
425 7.678
430 7.79936
435 7.86619
440 7.09532
445 7.73834
450 7.41472
455 7.27706
460 7.1714
465 7.45405
470 7.45235
475 7.2868
480 6.98023
485 6.85539
490 7.26671
495 6.73076
500 6.76392
505 6.44748
510 6.64477
515 6.26986
520 6.69387
525 6.74847
530 6.98802
535 6.95774
540 7.5677
545 7.5825
550 7.61408
555 8.2767
560 8.8692
565 9.22093
570 10.0314
575 9.63336
580 10.6068
585 12.361
590 13.2356
595 15.0308
600 17.0465
Ex : 328
200 2.3163
205 2.25393
210 2.48158
215 2.52213
220 2.68097
225 2.56866
230 2.57741
235 2.84306
240 2.98126
245 2.90168
250 3.14958
255 3.33784
260 3.34331
265 3.50473
270 3.91829
275 4.4568
280 4.98768
285 5.83612
290 6.45279
295 8.54885
300 11.2491
305 15.5099
310 27.4246
315 939.272
320 9999.9
325 9999.9
330 3678.37
335 466.422
340 82.7798
345 30.3784
350 21.7986
355 20.0252
360 20.7161
365 18.872
370 15.0627
375 12.548
380 11.3862
385 10.5521
390 10.5193
395 9.97462
400 9.50841
405 9.42128
410 8.71116
415 8.56422
420 8.31494
425 7.61616
430 7.48181
435 7.12853
440 6.96614
445 7.08189
450 6.88708
455 6.97161
460 7.00172
465 7.36269
470 7.25887
475 6.78306
480 6.55841
485 6.52964
490 6.54421
495 6.26941
500 6.27348
505 6.29772
510 6.30281
515 5.91001
520 6.24485
525 6.10879
530 6.04172
535 6.5576
540 6.70294
545 6.7135
550 6.63818
555 6.97338
560 7.38919
565 7.63983
570 8.32577
575 8.52797
580 9.28904
585 9.56176
590 10.038
595 10.8066
600 10.8924
Ex : 333
200 2.16746
205 2.02689
210 2.17471
215 2.06854
220 2.19646
225 2.31717
230 2.53386
235 2.72437
240 2.59802
245 2.67476
250 2.67241
255 2.87291
260 3.10044
265 3.39486
270 3.66218
275 4.14264
280 4.33299
285 4.84037
290 5.96263
295 6.95826
300 8.61745
305 11.1538
310 15.9329
315 28.4821
320 1051.34
325 9999.9
330 9999.9
335 3748.46
340 473.141
345 82.9347
350 29.9909
355 20.6758
360 18.6357
365 19.739
370 18.8547
375 15.6153
380 12.185
385 11.0844
390 10.0061
395 10.0595
400 9.69686
405 9.36933
410 8.63904
415 8.56417
420 7.83644
425 7.2488
430 7.19736
435 7.16299
440 6.71149
445 6.71488
450 6.88867
455 6.82316
460 6.57092
465 6.81708
470 6.82294
475 6.4526
480 6.23138
485 6.37814
490 6.33714
495 5.86768
500 5.88958
505 5.88194
510 5.88274
515 5.63741
520 5.82934
525 5.63739
530 5.85397
535 5.6928
540 5.99794
545 6.21854
550 6.31241
555 6.64489
560 6.1769
565 6.67505
570 6.90713
575 7.24071
580 7.88357
585 7.46037
590 8.13919
595 9.15125
600 10.4086
Ex : 338
200 1.87797
205 1.94952
210 1.97539
215 1.99596
220 2.22736
225 2.26465
230 2.46879
235 2.36491
240 2.54583
245 2.47776
250 2.58722
255 2.84929
260 2.92091
265 3.34565
270 3.3209
275 3.4313
280 3.96438
285 4.54624
290 5.15182
295 6.09159
300 6.87748
305 8.47813
310 12.0096
315 16.8218
320 29.0211
325 1185.87
330 9999.9
335 9999.9
340 3869.63
345 487.163
350 85.2987
355 30.1785
360 20.2935
365 18.37
370 18.3479
375 18.0691
380 15.2493
385 12.3056
390 10.8513
395 10.4477
400 9.61109
405 8.94931
410 8.69997
415 8.27421
420 7.57957
425 7.4404
430 7.23997
435 6.97915
440 6.83404
445 7.08248
450 6.53869
455 6.49553
460 6.79804
465 6.7017
470 6.52547
475 6.52193
480 6.07219
485 6.04647
490 6.14717
495 5.68527
500 5.32517
505 5.32408
510 5.33656
515 5.42901
520 5.45542
525 5.61171
530 5.64674
535 5.73351
540 5.569
545 5.7423
550 5.87959
555 5.84453
560 5.91065
565 6.18811
570 6.37181
575 6.52959
580 6.60567
585 6.52622
590 7.4933
595 7.29597
600 8.08991
Ex : 343
200 1.65822
205 1.84726
210 2.08861
215 1.98102
220 1.93172
225 2.12044
230 2.06788
235 2.18751
240 2.21044
245 2.40662
250 2.4541
255 2.75445
260 2.74561
265 2.92551
270 2.96335
275 3.5384
280 3.53983
285 4.14493
290 4.44043
295 5.00403
300 5.98464
305 6.91007
310 9.01006
315 11.9745
320 18.1972
325 31.5743
330 1168.22
335 9999.9
340 9999.9
345 4061.82
350 510.286
355 86.2866
360 30.3242
365 20.5182
370 17.6459
375 17.499
380 17.817
385 15.8555
390 12.4156
395 10.9108
400 10.1464
405 9.18021
410 8.88607
415 8.50826
420 7.75548
425 7.53795
430 7.05526
435 6.832
440 6.96944
445 6.71737
450 6.44839
455 6.3141
460 6.45146
465 6.45225
470 6.43277
475 6.21002
480 5.84157
485 5.59527
490 5.8806
495 5.72211
500 5.288
505 5.3316
510 5.32307
515 5.18634
520 5.3219
525 5.09786
530 5.12834
535 5.62226
540 5.41161
545 5.34853
550 5.54906
555 5.36469
560 5.36466
565 5.2446
570 5.61209
575 5.38813
580 5.44786
585 5.7633
590 6.07484
595 6.76122
600 6.63635
Ex : 348
200 1.85199
205 1.93231
210 1.81445
215 1.91808
220 1.85432
225 2.06379
230 2.15755
235 2.06523
240 1.93132
245 2.18143
250 2.32796
255 2.27295
260 2.63477
265 2.50672
270 2.66231
275 3.09277
280 3.30189
285 3.70515
290 4.13643
295 4.66148
300 4.65365
305 5.96597
310 7.21743
315 9.12499
320 12.527
325 18.3545
330 31.4804
335 1108.3
340 9999.9
345 9999.9
350 4593.93
355 572.599
360 93.9175
365 31.2125
370 19.9875
375 16.6188
380 16.3694
385 16.8279
390 16.0605
395 13.9339
400 11.2571
405 9.77806
410 8.74025
415 8.5061
420 7.99594
425 7.40658
430 7.19418
435 6.79341
440 6.71145
445 6.71166
450 6.69216
455 6.33121
460 6.74124
465 6.24214
470 5.99487
475 5.9132
480 5.66654
485 5.46585
490 5.20191
495 5.26878
500 5.18329
505 5.26019
510 5.02846
515 4.60915
520 4.50788
525 4.56341
530 4.52364
535 4.69274
540 4.92518
545 4.72055
550 4.70538
555 5.07352
560 4.68295
565 5.08269
570 5.13664
575 4.89147
580 4.67835
585 5.13594
590 5.37756
595 5.59053
600 5.06283
Ex : 353
200 1.58343
205 1.64168
210 1.59779
215 1.97029
220 1.75871
225 1.81433
230 1.99997
235 1.92522
240 2.24646
245 2.13621
250 2.24947
255 2.20606
260 2.44717
265 2.52595
270 2.71214
275 2.91708
280 3.09679
285 3.62349
290 3.72777
295 4.07418
300 4.44756
305 5.40683
310 5.84147
315 7.35579
320 8.99174
325 13.0242
330 18.9736
335 32.136
340 1161.7
345 9999.9
350 9999.9
355 4449.41
360 554.914
365 92.4377
370 31.4216
375 20.144
380 16.2863
385 15.3228
390 16.3483
395 16.5313
400 14.8449
405 10.9049
410 9.36696
415 8.79429
420 8.20231
425 7.80628
430 7.67248
435 6.92438
440 6.64286
445 6.73831
450 6.73577
455 6.58887
460 6.18063
465 6.29945
470 5.86083
475 5.68653
480 5.64392
485 5.38016
490 5.34167
495 5.04352
500 4.78751
505 4.70359
510 4.70447
515 4.64301
520 4.88165
525 4.53656
530 4.47611
535 4.42115
540 4.47247
545 4.40145
550 4.6264
555 4.53305
560 4.60163
565 4.82421
570 4.70769
575 4.29758
580 4.18169
585 4.34545
590 4.51463
595 4.85442
600 4.98743
Ex : 358
200 1.72146
205 1.78302
210 1.85894
215 1.62914
220 1.58822
225 1.82088
230 1.83268
235 1.83739
240 1.96478
245 1.91056
250 1.99658
255 2.11217
260 2.17011
265 2.1999
270 2.50037
275 2.63159
280 2.82588
285 3.14694
290 3.16847
295 3.45263
300 4.00558
305 4.51421
310 4.99009
315 5.88886
320 7.31146
325 9.26518
330 12.563
335 18.799
340 32.1523
345 1122.03
350 9999.9
355 9999.9
360 4657.84
365 578.837
370 95.3033
375 31.3714
380 19.724
385 16.4869
390 14.5703
395 15.4589
400 16.0129
405 14.2585
410 11.4266
415 9.3648
420 8.51026
425 8.08885
430 7.60017
435 6.87059
440 6.71694
445 6.48823
450 6.20185
455 6.30291
460 6.45439
465 6.09028
470 5.88389
475 5.4185
480 5.28698
485 5.2334
490 5.3051
495 5.16968
500 4.72791
505 4.61875
510 4.38647
515 4.42278
520 4.036
525 4.29743
530 3.98928
535 4.01928
540 4.02299
545 4.02577
550 4.12072
555 4.34198
560 4.12874
565 3.94485
570 4.0424
575 3.97228
580 3.94638
585 3.92669
590 3.7404
595 4.02463
600 3.08251
Ex : 363
200 1.55954
205 1.61505
210 1.69809
215 1.50338
220 1.57598
225 1.69057
230 1.68444
235 1.73926
240 1.8704
245 1.78201
250 1.77262
255 1.89443
260 2.07566
265 2.07668
270 2.296
275 2.37392
280 2.31537
285 2.74048
290 2.87634
295 3.31327
300 3.37313
305 3.59883
310 4.41972
315 4.93944
320 5.96799
325 7.51986
330 9.40392
335 12.3224
340 18.7096
345 30.9706
350 1047.4
355 9999.9
360 9999.9
365 4900.66
370 607.555
375 98.0686
380 31.3436
385 20.24
390 16.5092
395 13.9017
400 13.8655
405 14.9365
410 14.4797
415 11.781
420 9.16071
425 8.02404
430 7.70108
435 7.39247
440 6.93944
445 6.72695
450 6.54729
455 6.13561
460 5.90187
465 5.92115
470 5.71165
475 5.49965
480 5.52472
485 5.13087
490 4.67485
495 4.59758
500 4.56273
505 4.44494
510 4.35695
515 3.93115
520 3.95262
525 3.86854
530 3.7246
535 3.88954
540 3.78261
545 3.87425
550 3.80023
555 3.84227
560 3.76673
565 3.8364
570 3.66628
575 3.56725
580 3.63606
585 3.62938
590 3.55554
595 3.33212
600 3.82377
Ex : 368
200 1.38648
205 1.44207
210 1.4592
215 1.46225
220 1.47274
225 1.64384
230 1.70134
235 1.6686
240 1.6468
245 1.77396
250 1.84624
255 1.70639
260 1.77812
265 1.98597
270 2.26769
275 2.31523
280 2.38276
285 2.65888
290 2.76153
295 3.00911
300 3.08814
305 3.42721
310 3.93004
315 4.49109
320 5.0852
325 6.28674
330 7.62851
335 9.43918
340 12.9633
345 18.5213
350 32.1233
355 903.849
360 9999.9
365 9999.9
370 5424.4
375 671.438
380 105.918
385 33.1203
390 20.066
395 15.9648
400 13.195
405 13.1919
410 14.3783
415 14.2551
420 12.0816
425 9.54499
430 8.0654
435 7.61642
440 7.06
445 6.80573
450 6.67028
455 6.35087
460 5.91168
465 5.86069
470 5.52174
475 5.42068
480 5.02424
485 4.89286
490 4.93687
495 4.50222
500 4.30867
505 4.33234
510 4.1529
515 4.10143
520 3.77685
525 3.80417
530 3.74076
535 3.69306
540 3.42016
545 3.50052
550 3.57072
555 3.70648
560 3.6021
565 3.56873
570 3.43622
575 3.3526
580 3.21475
585 3.27691
590 3.50253
595 3.38346
600 3.21103
Ex : 373
200 1.53835
205 1.44964
210 1.45553
215 1.44762
220 1.4628
225 1.57618
230 1.56638
235 1.52101
240 1.63447
245 1.64661
250 1.74474
255 1.89549
260 1.87484
265 2.0185
270 1.92788
275 2.17168
280 2.2487
285 2.42153
290 2.52338
295 2.6089
300 2.92212
305 3.38829
310 3.61794
315 3.88028
320 4.52054
325 5.21326
330 6.30676
335 7.57182
340 9.74564
345 13.297
350 19.3178
355 32.536
360 1078.87
365 9999.9
370 9999.9
375 5409.2
380 668.058
385 105.364
390 32.9889
395 20.1307
400 16.2754
405 12.9828
410 12.5598
415 13.7343
420 13.5853
425 12.5102
430 9.91534
435 8.12532
440 7.36328
445 7.12688
450 6.9216
455 6.40994
460 6.0658
465 5.99931
470 5.51267
475 5.27132
480 5.12988
485 4.78213
490 4.45145
495 4.38456
500 4.24068
505 4.02373
510 4.20876
515 4.01329
520 3.88616
525 3.7103
530 3.5408
535 3.5261
540 3.33565
545 3.41917
550 3.25066
555 3.52352
560 3.23785
565 3.12474
570 3.18774
575 3.1025
580 3.09657
585 3.0768
590 3.26547
595 3.02075
600 3.15366
Ex : 378
200 1.31806
205 1.45759
210 1.3877
215 1.57377
220 1.54129
225 1.46916
230 1.52298
235 1.55956
240 1.52015
245 1.65961
250 1.64777
255 1.73607
260 1.73731
265 1.85335
270 2.08584
275 2.09197
280 2.25657
285 2.16765
290 2.36111
295 2.53131
300 2.62801
305 2.92782
310 3.17676
315 3.66841
320 3.96989
325 4.58896
330 5.40758
335 6.38853
340 7.9052
345 9.93919
350 13.2422
355 19.407
360 32.8385
365 1051.27
370 9999.9
375 9999.9
380 5526.04
385 683.186
390 107.883
395 33.2941
400 20.6035
405 16.0592
410 12.6368
415 11.7862
420 12.4928
425 13.1052
430 12.3821
435 10.0753
440 8.18299
445 7.6258
450 6.91309
455 6.43096
460 6.58895
465 6.08812
470 5.74642
475 5.46094
480 4.90907
485 4.8285
490 4.91066
495 4.3681
500 4.09131
505 3.95903
510 3.95416
515 3.75937
520 3.66537
525 3.45048
530 3.35847
535 3.42141
540 3.29011
545 2.95073
550 3.15537
555 3.29409
560 2.99225
565 3.17323
570 2.8049
575 3.07278
580 2.877
585 2.76659
590 2.77124
595 2.77175
600 2.26566
Ex : 383
200 1.24182
205 1.31155
210 1.45212
215 1.39399
220 1.33868
225 1.46152
230 1.27994
235 1.49679
240 1.54507
245 1.52784
250 1.62436
255 1.75085
260 1.80908
265 1.87793
270 1.90038
275 1.90625
280 2.13154
285 2.12006
290 2.18164
295 2.48124
300 2.49661
305 2.79782
310 3.24033
315 3.17324
320 3.64717
325 3.90336
330 4.67446
335 5.16627
340 6.21017
345 8.00007
350 9.82161
355 13.358
360 18.7069
365 32.338
370 980.513
375 9999.9
380 9999.9
385 5790.6
390 715.278
395 110.979
400 33.2592
405 19.9866
410 15.6546
415 12.2209
420 10.9664
425 11.8843
430 12.4613
435 12.2039
440 10.4058
445 8.48431
450 7.33371
455 6.86092
460 6.59054
465 6.46881
470 5.48611
475 5.4103
480 4.93586
485 4.94567
490 4.76158
495 4.42764
500 4.01285
505 3.86111
510 3.73333
515 3.52564
520 3.68695
525 3.44073
530 3.30687
535 3.23065
540 3.1522
545 3.10094
550 3.13734
555 3.0083
560 3.07959
565 2.8737
570 2.75163
575 2.70523
580 2.683
585 2.48252
590 2.5562
595 2.55703
600 3.38557
Ex : 388
200 1.38271
205 1.36773
210 1.31642
215 1.41766
220 1.4664
225 1.38868
230 1.6327
235 1.4686
240 1.61544
245 1.64803
250 1.66265
255 1.6425
260 1.79756
265 1.67337
270 1.89025
275 2.03207
280 2.16478
285 2.09044
290 2.18399
295 2.18247
300 2.54168
305 2.56474
310 2.87242
315 3.00958
320 3.36829
325 3.74529
330 4.28673
335 4.76098
340 5.61078
345 6.7114
350 8.04144
355 10.0036
360 13.3548
365 20.0299
370 33.0128
375 1061.37
380 9999.9
385 9999.9
390 5936.09
395 730.511
400 112.824
405 33.4397
410 19.8777
415 15.1024
420 11.8448
425 10.6221
430 11.1833
435 12.0916
440 12.2932
445 11.075
450 8.39936
455 7.34192
460 6.75848
465 6.49161
470 5.99299
475 5.62528
480 5.21725
485 4.89689
490 4.95778
495 4.53702
500 4.30537
505 4.05576
510 3.9663
515 3.61201
520 3.62085
525 3.55293
530 3.34296
535 3.40957
540 3.16655
545 3.10503
550 2.84362
555 2.96811
560 2.93951
565 2.73212
570 2.74487
575 2.67949
580 2.44632
585 2.59913
590 2.29682
595 2.4143
600 1.64284
Ex : 393
200 1.31395
205 1.48255
210 1.35239
215 1.39712
220 1.34269
225 1.45681
230 1.5233
235 1.45406
240 1.53657
245 1.51391
250 1.53422
255 1.61436
260 1.6631
265 1.77157
270 1.76055
275 1.80778
280 2.0144
285 2.12714
290 2.08504
295 2.27041
300 2.53675
305 2.64092
310 2.72467
315 3.04645
320 3.31563
325 3.41611
330 3.87534
335 4.14971
340 4.78379
345 5.61964
350 6.82812
355 8.07277
360 10.549
365 14.1763
370 20.6258
375 34.3494
380 1000.75
385 9999.9
390 9999.9
395 6350.41
400 780.775
405 118.939
410 34.4019
415 20.2099
420 15.2743
425 11.9066
430 10.3566
435 10.7849
440 11.6772
445 11.5692
450 11.5979
455 9.33558
460 7.66374
465 7.11757
470 6.67715
475 5.96939
480 5.50068
485 4.78459
490 4.7704
495 4.5643
500 4.26247
505 4.18985
510 3.97547
515 3.65987
520 3.56991
525 3.43611
530 3.39283
535 3.38234
540 3.2925
545 3.11065
550 3.00435
555 2.85323
560 2.9671
565 2.98803
570 2.65853
575 2.46676
580 2.59154
585 2.41267
590 2.29858
595 2.26189
600 2.14483
Ex : 398
200 1.38803
205 1.42977
210 1.40323
215 1.3956
220 1.41709
225 1.39851
230 1.49822
235 1.62023
240 1.55444
245 1.62903
250 1.63677
255 1.66045
260 1.69304
265 1.67659
270 2.01146
275 1.94129
280 1.97207
285 2.03329
290 2.05775
295 2.21049
300 2.41908
305 2.51084
310 2.91231
315 2.94038
320 3.01442
325 3.30724
330 3.56589
335 4.10228
340 4.6106
345 5.14655
350 5.93794
355 6.72768
360 8.35178
365 10.8538
370 14.2726
375 20.6508
380 34.7977
385 1077.7
390 9999.9
395 9999.9
400 6532.53
405 801.768
410 120.936
415 34.4718
420 20.3814
425 15.1231
430 11.6996
435 10.2274
440 10.196
445 11.6737
450 11.8713
455 11.338
460 9.74011
465 7.87324
470 7.0688
475 6.18829
480 5.66297
485 5.27341
490 4.92802
495 4.67745
500 4.41349
505 4.16416
510 3.68505
515 3.7342
520 3.68386
525 3.59684
530 3.63164
535 3.38571
540 3.29795
545 2.98549
550 3.11412
555 2.8722
560 2.70043
565 2.72155
570 2.51783
575 2.4908
580 2.58469
585 2.49427
590 2.38927
595 2.23495
600 2.96245
Ex : 403
200 1.30052
205 1.27218
210 1.29896
215 1.41965
220 1.40686
225 1.46931
230 1.43943
235 1.55308
240 1.66188
245 1.63809
250 1.50465
255 1.62879
260 1.68165
265 1.66987
270 1.77773
275 1.71963
280 1.88281
285 1.95886
290 2.09061
295 2.14314
300 2.28467
305 2.52031
310 2.54637
315 2.69684
320 2.95275
325 3.18696
330 3.48596
335 3.87036
340 4.01783
345 4.63587
350 5.39279
355 5.95164
360 7.12639
365 8.62355
370 10.9163
375 14.6658
380 21.7897
385 36.0735
390 1174.5
395 9999.9
400 9999.9
405 6688.24
410 819.449
415 123.304
420 34.4976
425 19.9554
430 15.1547
435 11.733
440 10.0544
445 10.0637
450 11.1155
455 11.1946
460 11.0471
465 10.1536
470 8.01924
475 6.57303
480 5.91852
485 5.47058
490 5.40712
495 4.79835
500 4.38795
505 4.51676
510 4.14942
515 3.9649
520 3.95853
525 3.81196
530 3.39515
535 3.2799
540 3.12369
545 3.16243
550 2.97719
555 2.99806
560 2.75242
565 2.94177
570 2.74738
575 2.62048
580 2.496
585 2.31847
590 2.36153
595 2.41931
600 2.45979
Ex : 408
200 1.25805
205 1.39931
210 1.29802
215 1.29958
220 1.38694
225 1.34452
230 1.40641
235 1.47659
240 1.4642
245 1.51333
250 1.68244
255 1.57632
260 1.65166
265 1.52423
270 1.71093
275 1.7529
280 1.79942
285 1.94147
290 2.02615
295 2.08773
300 2.23284
305 2.36108
310 2.36454
315 2.70013
320 2.77755
325 3.06303
330 3.38435
335 3.59635
340 3.85814
345 4.21867
350 4.73941
355 5.25796
360 6.19446
365 7.25017
370 8.63898
375 11.104
380 15.2255
385 22.1491
390 38.7446
395 1178.71
400 9999.9
405 9999.9
410 6554.42
415 804.007
420 121.927
425 34.7335
430 20.1767
435 15.0906
440 11.525
445 10.5547
450 9.92947
455 10.2994
460 11.4583
465 10.9541
470 9.97521
475 8.24418
480 6.59127
485 5.69889
490 5.20383
495 4.88705
500 4.62103
505 4.59326
510 4.24063
515 4.0275
520 3.6138
525 3.51024
530 3.41246
535 3.18528
540 3.32966
545 3.18077
550 2.99014
555 3.03774
560 2.91397
565 2.73242
570 2.59386
575 2.53513
580 2.50444
585 2.32392
590 2.41898
595 2.22676
600 2.40349
Ex : 413
200 1.22367
205 1.36165
210 1.32082
215 1.35619
220 1.40598
225 1.35646
230 1.37725
235 1.39142
240 1.50615
245 1.51776
250 1.48077
255 1.52558
260 1.665
265 1.52417
270 1.63817
275 1.72281
280 1.76018
285 1.84965
290 1.93694
295 2.03657
300 2.04137
305 2.19271
310 2.275
315 2.51335
320 2.60186
325 2.69531
330 3.03704
335 3.3301
340 3.60497
345 3.9862
350 4.33043
355 4.92799
360 5.42903
365 6.06828
370 7.54366
375 8.77142
380 11.5455
385 15.6601
390 23.1815
395 39.4625
400 1318.79
405 9999.9
410 9999.9
415 6344.32
420 775.78
425 118.079
430 33.8466
435 19.9785
440 15.2277
445 11.9484
450 10.3877
455 9.63835
460 10.0035
465 11.0481
470 10.7201
475 9.83644
480 8.26622
485 6.5405
490 5.74441
495 5.22812
500 4.824
505 4.32683
510 4.12604
515 4.08598
520 4.0128
525 3.71875
530 3.5895
535 3.34344
540 3.1903
545 3.18535
550 2.96845
555 2.95205
560 2.76137
565 2.80257
570 2.53942
575 2.57711
580 2.38504
585 2.27223
590 2.23122
595 2.10763
600 1.90999
Ex : 418
200 1.26607
205 1.28843
210 1.28105
215 1.21901
220 1.24655
225 1.33213
230 1.39935
235 1.35166
240 1.4029
245 1.37302
250 1.4234
255 1.59124
260 1.58561
265 1.5892
270 1.77743
275 1.79241
280 1.76602
285 1.75175
290 1.75154
295 1.95728
300 2.19135
305 2.18087
310 2.22553
315 2.33963
320 2.56891
325 2.95301
330 2.92025
335 3.11208
340 3.35169
345 3.77269
350 4.07627
355 4.32881
360 4.72274
365 5.4815
370 6.50999
375 7.2998
380 9.08523
385 11.9323
390 16.098
395 23.5698
400 39.1788
405 1267.81
410 9999.9
415 9999.9
420 6643.71
425 811.454
430 121.849
435 34.6322
440 20.589
445 15.3709
450 11.7599
455 10.1386
460 9.86913
465 9.88011
470 10.4963
475 10.0782
480 9.55977
485 8.40539
490 6.94171
495 5.69504
500 5.0367
505 4.47923
510 4.37524
515 4.0075
520 3.80937
525 3.74897
530 3.43185
535 3.32644
540 3.22991
545 3.18326
550 3.05563
555 3.08625
560 2.91841
565 2.80939
570 2.60183
575 2.51537
580 2.37925
585 2.33932
590 2.18044
595 2.21487
600 2.05576
Ex : 423
200 1.29728
205 1.31066
210 1.34586
215 1.38651
220 1.34623
225 1.32335
230 1.37169
235 1.42279
240 1.33471
245 1.32404
250 1.48677
255 1.45234
260 1.5215
265 1.61275
270 1.6305
275 1.70675
280 1.85727
285 1.71031
290 1.75901
295 1.92052
300 2.07985
305 2.21996
310 2.19987
315 2.23472
320 2.43825
325 2.58047
330 2.75862
335 2.99311
340 3.21857
345 3.50331
350 3.9067
355 4.1448
360 4.64302
365 4.99201
370 5.73133
375 6.84966
380 7.68213
385 9.75323
390 12.8602
395 16.9542
400 24.3249
405 41.3271
410 1347.08
415 9999.9
420 9999.9
425 6531.92
430 801.525
435 122.193
440 35.1085
445 20.972
450 16.2465
455 12.4213
460 10.7233
465 10.2769
470 9.61205
475 9.71493
480 10.0353
485 9.2358
490 8.46353
495 7.01849
500 5.61354
505 4.9616
510 4.66099
515 4.3481
520 3.99458
525 3.62823
530 3.62251
535 3.62131
540 3.54952
545 3.25223
550 3.13089
555 3.0983
560 2.90295
565 2.96893
570 2.62284
575 2.54423
580 2.424
585 2.36205
590 2.15471
595 2.1894
600 1.83046
Ex : 428
200 1.21099
205 1.24763
210 1.2646
215 1.3164
220 1.25401
225 1.3493
230 1.3043
235 1.30482
240 1.45588
245 1.44359
250 1.45877
255 1.4976
260 1.51649
265 1.60038
270 1.55483
275 1.66398
280 1.85166
285 1.73652
290 1.89659
295 1.83965
300 1.88983
305 2.10079
310 2.2292
315 2.1396
320 2.35449
325 2.47711
330 2.68849
335 2.74693
340 3.14997
345 3.24465
350 3.58578
355 3.99597
360 4.31913
365 4.73597
370 5.29776
375 5.82758
380 6.823
385 8.03352
390 9.83682
395 12.9782
400 16.8887
405 24.9839
410 41.9788
415 1471.18
420 9999.9
425 9999.9
430 6717.7
435 821.941
440 124.496
445 35.9582
450 21.4296
455 15.8747
460 12.7155
465 11.3297
470 10.2221
475 9.12412
480 9.42151
485 9.58961
490 8.80614
495 8.35144
500 7.14276
505 5.80872
510 4.92161
515 4.36223
520 4.20502
525 3.88051
530 3.60816
535 3.635
540 3.49884
545 3.24982
550 3.14897
555 2.89309
560 3.04596
565 2.90229
570 2.68331
575 2.34413
580 2.40051
585 2.29419
590 2.17877
595 2.12185
600 1.91322
Ex : 433
200 1.25792
205 1.26975
210 1.33774
215 1.45281
220 1.26705
225 1.26042
230 1.2876
235 1.33951
240 1.41898
245 1.43771
250 1.31601
255 1.4796
260 1.5543
265 1.6391
270 1.55324
275 1.56359
280 1.77669
285 1.69568
290 1.85686
295 1.89232
300 1.96984
305 2.15011
310 2.09047
315 2.24949
320 2.31779
325 2.5362
330 2.58375
335 2.76088
340 2.83107
345 3.09347
350 3.43757
355 3.80988
360 4.07272
365 4.36866
370 5.03012
375 5.47128
380 6.09386
385 7.33786
390 8.6385
395 10.4033
400 13.4898
405 18.3234
410 26.4193
415 45.6667
420 1639.1
425 9999.9
430 9999.9
435 6641.26
440 812.956
445 125.266
450 37.224
455 22.0055
460 16.8571
465 13.248
470 11.0593
475 9.80709
480 8.96075
485 8.82457
490 9.48422
495 8.83731
500 8.37125
505 7.50456
510 5.96353
515 5.06847
520 4.56664
525 4.12254
530 3.96647
535 3.76028
540 3.4812
545 3.36204
550 3.29853
555 3.06656
560 2.90867
565 2.83873
570 2.64607
575 2.47978
580 2.43065
585 2.34128
590 2.17368
595 2.05219
600 1.81712
Ex : 438
200 1.23202
205 1.21815
210 1.38338
215 1.26984
220 1.22763
225 1.27857
230 1.4363
235 1.39401
240 1.32493
245 1.35556
250 1.44952
255 1.50134
260 1.47112
265 1.49446
270 1.60049
275 1.57567
280 1.62942
285 1.74234
290 1.80461
295 1.85661
300 1.90026
305 1.96963
310 2.12037
315 2.16503
320 2.25429
325 2.52101
330 2.60466
335 2.55961
340 2.76933
345 3.12953
350 3.39405
355 3.53839
360 3.77251
365 4.05625
370 4.45415
375 5.02181
380 5.42151
385 6.5186
390 7.28478
395 8.76573
400 10.6553
405 13.6343
410 18.8318
415 27.0474
420 45.1309
425 1556.82
430 9999.9
435 9999.9
440 6875.33
445 842.477
450 129.221
455 37.6367
460 22.8721
465 17.7868
470 13.3227
475 10.7342
480 9.63804
485 8.96694
490 8.65094
495 9.16894
500 8.84842
505 8.08128
510 7.43388
515 6.18514
520 5.01088
525 4.43299
530 4.24411
535 3.8319
540 3.68682
545 3.45803
550 3.4176
555 3.32982
560 3.26764
565 2.97472
570 2.72722
575 2.6606
580 2.5677
585 2.37916
590 2.31715
595 2.31082
600 2.31906
Ex : 443
200 1.35828
205 1.35577
210 1.31926
215 1.31672
220 1.32838
225 1.37983
230 1.26271
235 1.3596
240 1.33251
245 1.44907
250 1.56532
255 1.39445
260 1.40426
265 1.50405
270 1.52839
275 1.64305
280 1.66479
285 1.83265
290 1.88795
295 1.98574
300 1.98573
305 1.93965
310 2.09207
315 2.26679
320 2.17262
325 2.39612
330 2.33734
335 2.76398
340 2.97278
345 3.01372
350 3.08664
355 3.58299
360 3.57186
365 4.04138
370 4.24821
375 4.79788
380 5.131
385 5.61706
390 6.83712
395 7.82082
400 8.97259
405 10.6031
410 14.2702
415 19.328
420 27.5973
425 45.787
430 1708.28
435 9999.9
440 9999.9
445 6870.12
450 842.009
455 129.789
460 38.7007
465 24.3325
470 17.7416
475 12.3658
480 10.6202
485 9.23861
490 9.20392
495 8.36504
500 8.52339
505 8.77268
510 7.81882
515 7.2709
520 6.27309
525 5.16519
530 4.41044
535 4.11062
540 3.95863
545 3.51465
550 3.36438
555 3.39123
560 3.21761
565 3.16239
570 2.8256
575 2.68832
580 2.58236
585 2.50539
590 2.25215
595 2.19875
600 2.13777
Ex : 448
200 1.31203
205 1.37994
210 1.36658
215 1.27987
220 1.32112
225 1.39019
230 1.41795
235 1.37128
240 1.40988
245 1.42851
250 1.47731
255 1.42626
260 1.49421
265 1.48842
270 1.55488
275 1.65777
280 1.72049
285 1.61558
290 1.83441
295 1.90038
300 1.87856
305 1.93462
310 2.07506
315 2.05735
320 2.16578
325 2.37927
330 2.45398
335 2.52374
340 2.74365
345 3.06399
350 3.17451
355 3.30879
360 3.51969
365 4.00224
370 4.1243
375 4.36607
380 4.86452
385 5.39707
390 6.01214
395 6.79406
400 7.80798
405 9.25442
410 11.2404
415 13.9138
420 19.4015
425 27.5563
430 47.0014
435 1768.75
440 9999.9
445 9999.9
450 6875.24
455 843.038
460 131.883
465 40.5241
470 23.5737
475 16.7848
480 12.1981
485 10.6932
490 9.37501
495 8.74773
500 8.43906
505 8.09079
510 8.35523
515 7.61167
520 6.87938
525 6.43491
530 5.51071
535 4.63223
540 4.08587
545 3.92922
550 3.58369
555 3.37101
560 3.25048
565 3.12391
570 2.8278
575 2.93081
580 2.69462
585 2.45167
590 2.29691
595 2.2675
600 1.89915
Ex : 453
200 1.24797
205 1.31737
210 1.27714
215 1.48276
220 1.41758
225 1.35822
230 1.36318
235 1.31279
240 1.38966
245 1.3756
250 1.51541
255 1.51933
260 1.54463
265 1.51568
270 1.62852
275 1.66628
280 1.52865
285 1.78109
290 1.81736
295 1.85273
300 1.97618
305 2.01514
310 1.9598
315 2.07208
320 2.23042
325 2.12811
330 2.37654
335 2.50924
340 2.53828
345 2.68894
350 3.0421
355 3.12606
360 3.30398
365 3.60904
370 4.00882
375 4.12483
380 4.44042
385 5.0203
390 5.57181
395 6.3293
400 6.90239
405 7.83291
410 9.11602
415 11.3151
420 14.4196
425 18.8688
430 27.1071
435 45.8928
440 1851.92
445 9999.9
450 9999.9
455 6554.82
460 807.466
465 128.284
470 38.3738
475 22.3445
480 16.3815
485 11.8479
490 10.0011
495 9.29197
500 8.46861
505 7.74777
510 7.83282
515 7.76469
520 7.3992
525 6.86567
530 6.54329
535 5.52771
540 4.45638
545 4.03635
550 4.05067
555 3.57974
560 3.40074
565 3.3099
570 3.01819
575 2.83773
580 2.69046
585 2.57995
590 2.40132
595 2.317
600 2.66908
Ex : 458
200 1.34018
205 1.39106
210 1.42115
215 1.37597
220 1.44298
225 1.33427
230 1.39727
235 1.43961
240 1.331
245 1.32557
250 1.4163
255 1.44381
260 1.52659
265 1.5114
270 1.49345
275 1.59086
280 1.53069
285 1.533
290 1.68703
295 1.85333
300 1.96318
305 1.90789
310 2.02108
315 2.12249
320 2.16943
325 2.20037
330 2.48073
335 2.60416
340 2.6905
345 2.83128
350 2.97996
355 3.16252
360 3.39054
365 3.40092
370 3.89059
375 4.21112
380 4.40498
385 4.82423
390 5.34877
395 5.92541
400 6.33225
405 7.15353
410 8.06428
415 9.76836
420 11.5472
425 14.6079
430 19.3437
435 27.8472
440 47.9542
445 2037.4
450 9999.9
455 9999.9
460 7039.69
465 867.823
470 135.874
475 38.8616
480 22.7581
485 16.3704
490 12.0589
495 9.99859
500 9.20656
505 8.64985
510 7.96438
515 7.90707
520 7.77642
525 7.28371
530 6.62329
535 6.40391
540 5.55579
545 4.82318
550 3.97443
555 3.72075
560 3.53815
565 3.32267
570 3.21016
575 2.98119
580 2.83996
585 2.47872
590 2.46527
595 2.24265
600 1.94615
Ex : 463
200 1.43187
205 1.36125
210 1.2834
215 1.36151
220 1.38658
225 1.4988
230 1.51904
235 1.47189
240 1.37335
245 1.44836
250 1.47589
255 1.45934
260 1.48962
265 1.47809
270 1.45671
275 1.59244
280 1.67377
285 1.67518
290 1.68199
295 1.84504
300 2.00948
305 1.97187
310 2.21938
315 2.27952
320 2.34658
325 2.28543
330 2.39567
335 2.58717
340 2.56153
345 2.69819
350 2.85588
355 2.98688
360 3.07002
365 3.42367
370 3.69697
375 3.86655
380 4.20756
385 4.41761
390 4.85175
395 5.43299
400 5.87933
405 6.50402
410 7.35025
415 8.26865
420 9.5682
425 11.3026
430 14.099
435 19.3257
440 28.7955
445 49.4285
450 1990.99
455 9999.9
460 9999.9
465 7058.66
470 868
475 132.39
480 37.6343
485 22.0216
490 15.8871
495 11.6824
500 9.80985
505 9.27238
510 8.63622
515 7.68829
520 7.28897
525 7.28357
530 7.22563
535 6.54968
540 6.04048
545 5.72561
550 4.91995
555 4.20426
560 3.70951
565 3.47535
570 3.22802
575 3.21515
580 3.05186
585 2.73624
590 2.44425
595 2.36464
600 2.36265
Ex : 468
200 1.38137
205 1.50456
210 1.49287
215 1.39878
220 1.50684
225 1.50992
230 1.64227
235 1.34692
240 1.41329
245 1.53714
250 1.50811
255 1.53819
260 1.55905
265 1.58746
270 1.69849
275 1.69131
280 1.66037
285 1.71114
290 1.77398
295 1.81322
300 2.07632
305 2.14211
310 2.20732
315 2.36584
320 2.30077
325 2.38921
330 2.38843
335 2.56934
340 2.60431
345 2.82301
350 2.79883
355 2.917
360 3.09577
365 3.17645
370 3.60518
375 3.80457
380 4.23431
385 4.26577
390 4.84763
395 5.04209
400 5.43257
405 6.15481
410 6.51786
415 7.23627
420 8.14093
425 9.57114
430 11.5543
435 14.5818
440 19.5277
445 28.2357
450 49.2836
455 2183.75
460 9999.9
465 9999.9
470 6931.88
475 846.429
480 128.628
485 36.5744
490 21.2037
495 15.4636
500 11.0966
505 9.53544
510 8.68183
515 8.62792
520 7.78438
525 7.4653
530 6.83612
535 6.99441
540 6.36926
545 6.02495
550 5.42901
555 5.03632
560 4.16654
565 3.61265
570 3.49163
575 3.03149
580 2.93466
585 2.83514
590 2.65126
595 2.52792
600 3.28791
Ex : 473
200 1.27493
205 1.45758
210 1.41108
215 1.44854
220 1.48174
225 1.47484
230 1.94988
235 1.60799
240 1.5026
245 1.50336
250 1.67765
255 1.50079
260 1.51173
265 1.60304
270 1.71274
275 1.77797
280 1.79071
285 1.69946
290 1.82713
295 1.84405
300 2.01586
305 1.99547
310 2.06889
315 2.23558
320 2.35449
325 2.43576
330 2.56204
335 2.39814
340 2.51005
345 2.82546
350 2.94058
355 2.98087
360 3.03806
365 3.36456
370 3.42989
375 3.82071
380 3.89898
385 4.30852
390 4.6943
395 4.96676
400 5.274
405 5.63276
410 5.86118
415 6.80188
420 7.34899
425 8.33971
430 9.49595
435 11.7441
440 14.977
445 20.4714
450 29.1907
455 50.9185
460 2298.99
465 9999.9
470 9999.9
475 6846.11
480 836.071
485 126.835
490 36.1404
495 21.3397
500 15.286
505 11.1805
510 9.32634
515 8.64089
520 8.23683
525 7.78209
530 7.26704
535 6.5225
540 6.42681
545 6.48532
550 5.72776
555 5.45701
560 5.03319
565 4.26013
570 3.70657
575 3.36122
580 3.04871
585 3.03574
590 2.81415
595 2.44593
600 3.03313
Ex : 478
200 1.48173
205 1.40154
210 1.45262
215 1.68178
220 1.62695
225 1.55233
230 1.83841
235 2.31996
240 1.6923
245 1.55744
250 1.65598
255 1.68997
260 1.5303
265 1.6515
270 1.57128
275 1.78293
280 1.74239
285 1.80692
290 1.89173
295 1.97899
300 2.01099
305 1.99307
310 2.16866
315 2.2887
320 2.22021
325 2.45222
330 2.61482
335 2.69585
340 2.63404
345 2.70449
350 3.04815
355 3.03676
360 3.13329
365 3.29613
370 3.41451
375 3.908
380 4.13398
385 4.32981
390 4.7912
395 5.0214
400 5.33484
405 5.72153
410 6.2253
415 6.77707
420 7.33817
425 8.10189
430 8.92416
435 10.5308
440 13.1571
445 17.3325
450 23.359
455 33.4115
460 59.6511
465 2638.86
470 9999.9
475 9999.9
480 7323.81
485 894.12
490 136.949
495 38.4735
500 22.5617
505 15.8119
510 11.7415
515 9.91474
520 9.02575
525 8.6023
530 8.09877
535 7.1441
540 7.03863
545 6.51513
550 6.5337
555 5.71466
560 5.38594
565 4.95127
570 4.44321
575 3.91442
580 3.43176
585 3.28674
590 3.05019
595 2.75276
600 2.88216
Ex : 483
200 1.42128
205 1.40806
210 1.45682
215 1.51393
220 1.57257
225 1.56107
230 1.6252
235 2.51433
240 2.08933
245 1.56561
250 1.6171
255 1.72595
260 1.7082
265 1.86202
270 1.70761
275 1.68068
280 1.7589
285 1.84507
290 1.83819
295 1.89072
300 2.02484
305 2.12303
310 2.06089
315 2.19676
320 2.39529
325 2.48673
330 2.46859
335 2.57707
340 2.69073
345 2.64547
350 2.68493
355 2.94004
360 2.97893
365 3.15057
370 3.25984
375 3.57695
380 3.79924
385 4.07819
390 4.42602
395 4.6875
400 5.16385
405 5.395
410 5.65077
415 6.3698
420 6.55412
425 7.22067
430 7.9965
435 9.06654
440 10.5384
445 13.2492
450 17.1552
455 23.222
460 35.4053
465 61.469
470 2074.13
475 9999.9
480 9999.9
485 7633.39
490 930.291
495 139.604
500 38.5361
505 22.1182
510 16.0643
515 12.2348
520 9.93344
525 9.1369
530 8.72348
535 8.03825
540 7.61905
545 6.98489
550 6.53433
555 6.10142
560 5.81116
565 5.35729
570 4.66834
575 4.28441
580 3.70853
585 3.39519
590 3.09653
595 2.93916
600 2.15982
Ex : 488
200 1.44876
205 1.61606
210 1.54392
215 1.51652
220 1.54838
225 1.40458
230 1.49446
235 2.10693
240 3.11299
245 1.82933
250 1.61071
255 1.6344
260 1.90048
265 1.71082
270 1.61073
275 1.72692
280 1.8523
285 1.77862
290 1.79763
295 1.88439
300 1.93341
305 2.00531
310 1.98798
315 2.1461
320 2.33578
325 2.22611
330 2.49372
335 2.54003
340 2.92085
345 2.84387
350 2.82108
355 2.921
360 3.10621
365 3.14898
370 3.35242
375 3.64049
380 3.99505
385 4.00193
390 4.51955
395 4.80655
400 5.12345
405 5.42278
410 5.69915
415 6.15436
420 6.70257
425 6.91279
430 7.72461
435 8.55435
440 9.80762
445 11.7755
450 14.4895
455 18.6217
460 26.5962
465 39.1208
470 62.6469
475 2512.07
480 9999.9
485 9999.9
490 7565.81
495 923.384
500 140.449
505 39.6601
510 23.3207
515 16.6406
520 12.1889
525 10.4591
530 9.33455
535 8.81232
540 8.28339
545 7.31684
550 6.96598
555 6.6052
560 6.05957
565 5.67199
570 5.33337
575 4.84308
580 4.36628
585 3.73068
590 3.20695
595 3.01609
600 3.7988
Ex : 493
200 1.42085
205 1.6512
210 1.54171
215 1.51486
220 1.65534
225 1.56825
230 1.61766
235 1.76594
240 3.14252
245 2.57067
250 1.82547
255 1.7854
260 1.92092
265 1.71828
270 1.75524
275 1.86175
280 1.87569
285 1.88805
290 2.04026
295 1.93872
300 1.99815
305 2.13942
310 2.04478
315 2.24083
320 2.18162
325 2.33756
330 2.56384
335 2.72534
340 2.68986
345 2.82778
350 2.97036
355 3.06386
360 3.23771
365 3.35524
370 3.36418
375 3.47696
380 3.71441
385 3.84419
390 4.13241
395 4.65521
400 5.08442
405 5.1948
410 5.35346
415 5.98578
420 6.2481
425 6.54363
430 7.178
435 8.08645
440 8.63388
445 9.89434
450 12.1277
455 14.9276
460 20.1297
465 27.8015
470 38.8161
475 60.5868
480 2418.65
485 9999.9
490 9999.9
495 7620.91
500 928.37
505 139.9
510 39.731
515 23.2544
520 16.922
525 12.3584
530 10.0403
535 9.19498
540 8.74931
545 8.6067
550 7.55458
555 6.69006
560 6.24355
565 5.77299
570 5.64595
575 4.87964
580 4.43924
585 4.20685
590 3.81599
595 3.6527
600 3.20442
Ex : 498
200 1.53212
205 1.56054
210 1.48463
215 1.4623
220 1.72405
225 1.55705
230 1.5851
235 1.61008
240 2.36005
245 3.78408
250 2.05113
255 1.65509
260 1.71604
265 1.79278
270 1.7268
275 1.68756
280 1.79994
285 1.99355
290 1.92462
295 2.03606
300 2.04142
305 2.03411
310 2.1358
315 1.97083
320 2.17783
325 2.35835
330 2.58223
335 2.56954
340 2.68161
345 2.85101
350 2.92171
355 3.02172
360 3.12849
365 3.02935
370 3.58131
375 3.54426
380 3.56831
385 4.13906
390 4.22282
395 4.54172
400 4.84283
405 5.22409
410 5.32952
415 5.87708
420 5.99837
425 6.38276
430 6.8342
435 7.60434
440 8.07038
445 9.54739
450 11.1626
455 12.9359
460 16.2087
465 21.7525
470 28.2305
475 38.9537
480 63.9735
485 2849.05
490 9999.9
495 9999.9
500 7738.17
505 943.081
510 143.62
515 40.6752
520 23.5538
525 16.8942
530 12.378
535 10.1134
540 9.23515
545 8.81027
550 8.68052
555 8.19912
560 7.01759
565 6.3559
570 5.87274
575 5.5373
580 4.95716
585 4.3826
590 4.23612
595 3.6958
600 3.72951
Ex : 503
200 1.50015
205 1.59375
210 1.55495
215 1.51978
220 1.66767
225 1.62127
230 1.63337
235 1.67611
240 1.6504
245 4.07888
250 2.95438
255 1.78827
260 1.73136
265 1.8537
270 1.83641
275 1.81794
280 1.84087
285 1.80217
290 1.91169
295 1.99869
300 2.0416
305 2.09462
310 2.10991
315 2.24977
320 2.2769
325 2.23035
330 2.42918
335 2.49112
340 2.63498
345 2.98337
350 2.82415
355 2.90729
360 3.18272
365 3.40483
370 3.41973
375 3.61003
380 3.61339
385 3.97444
390 4.38764
395 4.33002
400 4.75548
405 4.9664
410 5.42871
415 5.74163
420 5.92339
425 6.26215
430 6.68292
435 7.29991
440 7.78387
445 8.88527
450 9.79642
455 11.433
460 14.1572
465 17.5507
470 21.9587
475 28.0042
480 39.5725
485 64.5111
490 2661.85
495 9999.9
500 9999.9
505 7959
510 970.85
515 147.096
520 41.2341
525 23.5754
530 16.7637
535 12.8536
540 10.5356
545 9.71391
550 9.155
555 8.46906
560 8.08204
565 7.31818
570 6.2923
575 5.79815
580 5.09152
585 4.95402
590 4.33784
595 3.79817
600 2.77021
Ex : 508
200 1.67835
205 1.63575
210 1.63375
215 1.43385
220 1.57512
225 1.57182
230 1.61713
235 1.57787
240 1.67634
245 2.90869
250 5.07806
255 2.4906
260 1.93816
265 1.93354
270 1.84977
275 1.85026
280 1.90876
285 1.86308
290 1.83361
295 1.93613
300 1.97852
305 2.14703
310 2.21899
315 2.11222
320 2.16681
325 2.4087
330 2.29836
335 2.36777
340 2.47993
345 2.77445
350 2.83198
355 3.14776
360 3.15769
365 3.27317
370 3.10719
375 3.1637
380 3.78234
385 3.91477
390 3.88075
395 4.00569
400 4.63401
405 4.99436
410 4.98888
415 5.45035
420 5.50886
425 6.0163
430 6.34245
435 6.87075
440 7.29191
445 8.41628
450 9.0721
455 10.1672
460 11.9714
465 14.3898
470 17.2976
475 21.5921
480 28.2957
485 38.9186
490 64.7409
495 2839.59
500 9999.9
505 9999.9
510 8582.6
515 1040.67
520 154.482
525 42.8535
530 23.9434
535 17.2275
540 12.4971
545 10.517
550 9.47119
555 9.22593
560 8.55111
565 7.74608
570 6.87935
575 6.24474
580 5.17866
585 4.89357
590 4.66481
595 4.17074
600 3.77808
Ex : 513
200 1.44614
205 1.65171
210 1.57996
215 1.57129
220 1.47678
225 1.58826
230 1.651
235 1.74932
240 1.67717
245 2.16817
250 8.38477
255 6.9327
260 2.44847
265 1.78623
270 1.63593
275 1.83517
280 1.90217
285 2.05743
290 1.94563
295 2.09074
300 1.97132
305 2.02563
310 2.20819
315 2.28312
320 2.15598
325 2.1622
330 2.38096
335 2.38302
340 2.58415
345 2.78338
350 2.97142
355 3.03052
360 3.07122
365 3.15675
370 3.18184
375 3.33602
380 3.46454
385 3.61176
390 3.87553
395 4.21817
400 4.31018
405 4.44707
410 4.81639
415 5.14618
420 5.51607
425 5.77097
430 6.12904
435 6.50955
440 6.96827
445 7.57948
450 8.46201
455 9.53323
460 10.5158
465 12.8839
470 14.6827
475 16.5395
480 21.5105
485 28.4994
490 40.365
495 62.8022
500 2590.65
505 9999.9
510 9999.9
515 8878.94
520 1075.63
525 159.181
530 42.4156
535 24.2052
540 17.6849
545 12.4173
550 10.6826
555 9.9526
560 8.95985
565 8.44945
570 7.74943
575 7.04608
580 6.00473
585 5.29523
590 4.85988
595 4.50578
600 4.51042
Ex : 518
200 1.58488
205 1.4562
210 1.48801
215 1.56171
220 1.58031
225 1.66668
230 1.56545
235 1.73086
240 1.50953
245 1.55435
250 6.65085
255 18.0437
260 5.30698
265 2.10251
270 1.90406
275 2.0076
280 1.75044
285 1.90515
290 1.94181
295 1.95984
300 2.1471
305 2.13296
310 1.96477
315 2.25335
320 2.24784
325 2.27778
330 2.25419
335 2.5212
340 2.54513
345 2.65187
350 2.78202
355 2.69992
360 3.09402
365 3.19131
370 3.17556
375 3.45996
380 3.33781
385 3.38154
390 3.88143
395 3.9987
400 4.13493
405 4.57532
410 4.59355
415 5.27375
420 5.74825
425 5.17912
430 5.99935
435 6.18268
440 6.77668
445 7.65916
450 7.82332
455 8.91074
460 10.1309
465 11.2278
470 12.7225
475 13.8784
480 16.9716
485 21.3907
490 29.0477
495 39.0387
500 63.8697
505 2599.59
510 9999.9
515 9999.9
520 9052.77
525 1095.45
530 160.388
535 42.5613
540 24.2099
545 17.3358
550 12.4552
555 10.2287
560 9.48025
565 9.05716
570 8.66725
575 7.59588
580 6.66622
585 6.04076
590 4.9983
595 4.78002
600 4.65529
Ex : 523
200 1.65405
205 1.61303
210 1.52767
215 1.51799
220 1.5981
225 1.54491
230 1.53275
235 1.62814
240 1.67849
245 1.71016
250 2.667
255 24.1462
260 17.959
265 3.57452
270 2.09734
275 1.86228
280 2.08154
285 2.22602
290 2.07012
295 1.88356
300 2.14392
305 2.11709
310 2.2063
315 2.21905
320 2.5009
325 2.21294
330 2.55294
335 2.27659
340 2.56266
345 2.5383
350 2.8015
355 2.67095
360 2.90743
365 3.10531
370 3.22542
375 3.31886
380 3.34325
385 3.43369
390 3.31883
395 3.82753
400 4.02308
405 4.08637
410 4.41365
415 4.6638
420 4.9363
425 5.02041
430 5.52391
435 6.04217
440 6.32855
445 6.92901
450 7.63942
455 8.15803
460 9.30081
465 10.501
470 11.1023
475 11.9299
480 13.9172
485 17.0023
490 22.0936
495 27.9675
500 39.2284
505 60.5026
510 2393.91
515 9999.9
520 9999.9
525 9462.46
530 1143.19
535 166.534
540 43.2996
545 24.1885
550 17.064
555 12.3842
560 10.4874
565 9.2008
570 8.82656
575 8.26366
580 7.28986
585 6.54606
590 5.75931
595 4.99497
600 4.93126
Ex : 528
200 1.69688
205 1.60961
210 1.51509
215 1.62491
220 1.54245
225 1.69073
230 1.65328
235 1.67035
240 1.66256
245 1.68768
250 1.70387
255 13.6318
260 39.1172
265 10.2925
270 2.8475
275 2.13676
280 1.99072
285 1.91586
290 1.9944
295 2.04106
300 2.0344
305 2.03498
310 2.3163
315 2.03923
320 2.23286
325 2.35724
330 2.43766
335 2.4255
340 2.53818
345 2.60309
350 2.39278
355 2.72941
360 2.72526
365 2.94925
370 2.94001
375 3.20411
380 3.29033
385 3.63623
390 3.49513
395 3.71878
400 4.05173
405 4.28006
410 4.23809
415 4.50236
420 4.85804
425 5.02348
430 5.2889
435 5.73728
440 6.34254
445 6.60626
450 6.96999
455 7.56021
460 8.35725
465 9.49015
470 10.2141
475 10.7976
480 12.0581
485 13.6486
490 16.5911
495 20.8096
500 27.2118
505 38.3043
510 60.4301
515 2202.92
520 9999.9
525 9999.9
530 9142.44
535 1107.17
540 161.743
545 42.0192
550 23.1709
555 16.74
560 11.7343
565 9.63465
570 9.15012
575 8.55492
580 7.95077
585 6.97021
590 6.38809
595 5.81881
600 5.17137
Ex : 533
200 1.53682
205 1.74276
210 1.6792
215 1.66634
220 1.57821
225 1.59681
230 1.66677
235 1.72784
240 1.67654
245 1.58399
250 1.92217
255 3.67892
260 43.8351
265 34.4506
270 6.0877
275 2.45613
280 1.96929
285 2.09803
290 2.19692
295 2.14503
300 1.97671
305 2.2791
310 2.19156
315 2.29378
320 2.21407
325 2.34496
330 2.43217
335 2.34003
340 2.50249
345 2.62519
350 2.5352
355 2.82273
360 2.73312
365 3.04018
370 3.02326
375 3.16049
380 3.31715
385 3.31874
390 3.63156
395 3.66902
400 3.72051
405 4.01093
410 4.13952
415 4.18515
420 4.58564
425 4.86347
430 5.47554
435 5.80193
440 5.91016
445 6.38753
450 6.91196
455 7.44876
460 8.07751
465 8.892
470 9.73378
475 10.1014
480 11.0446
485 12.478
490 13.8289
495 16.8105
500 20.8409
505 28.2566
510 38.1676
515 59.5495
520 2273.07
525 9999.9
530 9999.9
535 9701.28
540 1172.35
545 169.124
550 43.3935
555 23.9447
560 17.1977
565 11.9252
570 10.0657
575 9.14163
580 8.72976
585 7.91352
590 6.87274
595 6.24325
600 6.27139
Ex : 538
200 1.56973
205 1.58196
210 1.80237
215 1.80678
220 1.71095
225 1.7671
230 1.59882
235 1.56769
240 1.60471
245 1.64776
250 1.71521
255 1.79908
260 23.4827
265 78.6973
270 21.2836
275 4.42107
280 2.33693
285 2.02324
290 2.20438
295 2.1843
300 2.42373
305 2.22377
310 2.24294
315 2.43339
320 2.31385
325 2.3612
330 2.48606
335 2.59284
340 2.71321
345 2.83428
350 2.75019
355 2.67967
360 2.77574
365 2.88279
370 3.18188
375 3.29054
380 3.36123
385 3.62907
390 3.78469
395 3.60929
400 3.76122
405 3.82161
410 4.01795
415 4.51338
420 4.38812
425 4.81565
430 4.80633
435 5.15822
440 5.57739
445 6.06976
450 6.59206
455 7.11831
460 7.63025
465 8.29338
470 8.68972
475 9.25422
480 10.0559
485 11.0085
490 12.3772
495 14.0828
500 16.611
505 20.8683
510 26.696
515 37.9941
520 57.9398
525 1970.23
530 9999.9
535 9999.9
540 9999.9
545 1211.42
550 174.421
555 44.921
560 24.4223
565 17.27
570 12.0176
575 9.4621
580 8.49069
585 8.10845
590 7.59805
595 6.74132
600 5.77958
Ex : 543
200 1.72278
205 1.7919
210 1.70456
215 1.63286
220 1.50843
225 1.71354
230 1.59039
235 1.7473
240 1.65209
245 1.57568
250 1.67614
255 1.7702
260 4.8689
265 82.7732
270 68.633
275 10.6058
280 3.27421
285 2.44715
290 2.22999
295 2.40415
300 2.15397
305 2.13623
310 2.10542
315 2.36347
320 2.3632
325 2.44432
330 2.54187
335 2.58006
340 2.76454
345 2.908
350 2.71747
355 2.88682
360 2.5895
365 2.66643
370 2.83469
375 3.09206
380 3.33068
385 3.14648
390 3.5034
395 3.56525
400 3.80329
405 3.88939
410 3.85644
415 4.157
420 4.46716
425 4.47765
430 4.6048
435 5.02034
440 5.57142
445 5.98541
450 6.17498
455 6.52297
460 7.11299
465 7.5762
470 8.4375
475 8.61113
480 9.48731
485 9.76869
490 10.522
495 11.6553
500 13.1062
505 15.8831
510 19.8162
515 26.1758
520 36.3855
525 55.9723
530 1780.55
535 9999.9
540 9999.9
545 9999.9
550 1216.05
555 174.184
560 43.6488
565 23.6485
570 16.9469
575 11.3554
580 9.01198
585 8.37336
590 7.59732
595 7.35932
600 7.40409
Ex : 548
200 1.70764
205 1.5187
210 1.55501
215 1.8799
220 1.67406
225 1.51119
230 1.60964
235 1.73468
240 1.67302
245 1.72655
250 1.77208
255 1.72086
260 1.87743
265 38.3518
270 131.65
275 32.6975
280 5.84404
285 2.57947
290 2.45198
295 2.38759
300 2.48739
305 2.30307
310 2.44807
315 2.37691
320 2.30218
325 2.36569
330 2.47109
335 2.58552
340 2.68802
345 2.4105
350 2.54777
355 2.80482
360 2.57098
365 2.85175
370 2.86149
375 2.90168
380 3.14329
385 3.50188
390 3.40472
395 3.82322
400 3.59632
405 3.63369
410 4.00123
415 4.06001
420 4.33159
425 4.71247
430 4.81561
435 4.80797
440 5.03172
445 5.55323
450 6.04892
455 6.45871
460 7.18322
465 7.51345
470 7.88064
475 8.2504
480 8.71791
485 9.32186
490 9.73005
495 10.7449
500 11.9682
505 12.988
510 15.9855
515 20.1472
520 26.2473
525 36.5464
530 56.593
535 1997.42
540 9999.9
545 9999.9
550 9999.9
555 1210.03
560 172.926
565 42.7048
570 22.8139
575 15.4065
580 10.9389
585 8.82199
590 7.95144
595 7.62517
600 8.80723
Ex : 553
200 1.57561
205 1.7178
210 1.62277
215 1.72825
220 1.71282
225 1.62421
230 1.71701
235 1.74585
240 1.75833
245 1.77431
250 1.78817
255 1.86866
260 1.8968
265 6.47682
270 125.706
275 107.156
280 15.4886
285 3.80793
290 2.69693
295 2.51134
300 2.57614
305 2.17337
310 2.28299
315 2.3686
320 2.37452
325 2.34685
330 2.56283
335 2.38694
340 2.54261
345 2.43499
350 2.69163
355 2.70743
360 2.62181
365 2.88231
370 2.91357
375 2.8179
380 3.10654
385 3.13413
390 3.30101
395 3.35781
400 3.70412
405 3.43919
410 3.62752
415 3.87306
420 3.91501
425 4.31071
430 4.43473
435 4.69863
440 4.97413
445 5.65927
450 5.52885
455 5.83471
460 6.57649
465 7.5304
470 7.58273
475 7.65201
480 7.70242
485 8.23384
490 9.16125
495 9.21358
500 10.7361
505 11.0845
510 12.7598
515 15.3703
520 19.9038
525 25.5036
530 35.0254
535 53.9491
540 1685.99
545 9999.9
550 9999.9
555 9999.9
560 1215.04
565 172.381
570 41.5048
575 21.849
580 14.1117
585 9.98693
590 8.14547
595 7.58799
600 7.79199
Ex : 558
200 1.59309
205 1.69016
210 1.72378
215 1.59496
220 1.75141
225 1.72165
230 1.63369
235 1.5951
240 1.5883
245 1.57221
250 1.8291
255 1.73255
260 1.77869
265 1.99944
270 53.5972
275 198.135
280 49.7119
285 7.8121
290 2.90001
295 2.39141
300 2.33122
305 2.61718
310 2.28871
315 2.4027
320 2.4576
325 2.46262
330 2.52142
335 2.47296
340 2.51499
345 2.60141
350 2.60272
355 2.71544
360 2.93684
365 2.75298
370 2.79551
375 2.59089
380 2.71086
385 2.91743
390 3.15799
395 3.40765
400 3.15877
405 3.38975
410 3.72613
415 4.02775
420 4.02653
425 4.21077
430 4.65735
435 4.61074
440 4.4835
445 4.98596
450 5.55398
455 5.63614
460 6.20156
465 6.84799
470 7.04819
475 7.0645
480 7.70267
485 7.67038
490 8.39924
495 8.94244
500 9.35762
505 10.0471
510 11.427
515 12.6104
520 14.6525
525 19.0835
530 24.7982
535 33.9049
540 52.9814
545 1613.17
550 9999.9
555 9999.9
560 9999.9
565 1215.82
570 170.966
575 39.8918
580 19.9444
585 13.6433
590 9.59379
595 7.44594
600 5.66931
Ex : 563
200 1.84675
205 1.83924
210 1.76591
215 1.80685
220 1.72052
225 1.59023
230 1.53288
235 1.68251
240 1.74154
245 1.94371
250 1.75453
255 1.70306
260 1.85722
265 1.88781
270 8.23442
275 179.115
280 149.662
285 21.245
290 4.37637
295 2.65453
300 2.08142
305 2.17302
310 2.19266
315 2.6345
320 2.35168
325 2.50661
330 2.38351
335 2.45551
340 2.40405
345 2.6084
350 2.6665
355 2.79736
360 2.74244
365 2.70815
370 2.82854
375 2.66786
380 3.11994
385 2.90193
390 2.93546
395 3.3522
400 3.39304
405 3.253
410 3.46252
415 3.71853
420 3.74032
425 3.87169
430 3.92896
435 4.23425
440 4.38171
445 4.75832
450 5.00793
455 5.35317
460 6.09405
465 6.50262
470 6.89485
475 7.06405
480 7.01683
485 7.50093
490 7.66514
495 8.59902
500 8.81608
505 9.15634
510 9.79372
515 10.7566
520 12.5928
525 15.4327
530 18.8098
535 24.3493
540 34.5968
545 53.0969
550 1578.74
555 9999.9
560 9999.9
565 9999.9
570 1213.39
575 167.883
580 38.5377
585 18.5248
590 13.3379
595 9.3409
600 7.49196
Ex : 568
200 1.70964
205 1.70531
210 1.82956
215 1.47747
220 1.59948
225 1.69123
230 1.59432
235 1.65347
240 1.54005
245 1.66087
250 1.8303
255 1.72987
260 1.65293
265 1.88628
270 2.23416
275 64.857
280 258.825
285 71.1487
290 10.213
295 3.15068
300 2.41651
305 2.41092
310 2.53223
315 2.40068
320 2.38881
325 2.39048
330 2.33898
335 2.39435
340 2.40495
345 2.66072
350 2.56953
355 2.71174
360 2.80366
365 2.67349
370 2.666
375 2.78135
380 2.95287
385 2.85677
390 2.81304
395 3.25176
400 3.27579
405 3.34746
410 3.48047
415 3.24722
420 3.60143
425 3.64468
430 3.90985
435 3.9583
440 4.54269
445 4.60301
450 4.81055
455 5.31262
460 5.62229
465 6.31514
470 6.39629
475 6.24736
480 6.68481
485 6.75824
490 7.18575
495 7.4479
500 7.90498
505 8.2391
510 8.71483
515 9.54237
520 10.8401
525 12.2578
530 14.3553
535 18.4833
540 24.1534
545 32.5224
550 48.7056
555 1199.92
560 9999.9
565 9999.9
570 9999.9
575 1221.02
580 167.146
585 36.7763
590 17.4644
595 11.8698
600 9.95477
Ex : 573
200 1.65953
205 1.58687
210 1.57942
215 1.5021
220 1.50405
225 1.54226
230 1.61219
235 1.5004
240 1.58302
245 1.61656
250 1.69024
255 1.4975
260 1.69197
265 1.6491
270 1.93097
275 7.81331
280 211.805
285 197.748
290 27.6215
295 5.34098
300 2.48511
305 2.29527
310 2.53211
315 2.25033
320 2.10769
325 2.26605
330 2.29817
335 2.36959
340 2.37629
345 2.31522
350 2.53424
355 2.44004
360 2.47693
365 2.23537
370 2.34108
375 2.70549
380 2.76161
385 2.797
390 3.18049
395 3.08221
400 2.98626
405 2.9698
410 3.14697
415 3.32982
420 3.58389
425 3.53291
430 3.80125
435 3.945
440 4.27273
445 4.77899
450 4.53098
455 4.83398
460 5.503
465 5.98105
470 6.08461
475 6.12836
480 6.37096
485 6.49279
490 6.56816
495 6.96099
500 7.08143
505 7.7231
510 8.11319
515 8.749
520 9.12108
525 10.2671
530 11.5627
535 13.8303
540 17.9562
545 23.4171
550 31.3671
555 47.9184
560 1028.08
565 9999.9
570 9999.9
575 9999.9
580 1215.56
585 162.214
590 33.8448
595 16.145
600 12.6889
Ex : 578
200 1.57421
205 1.38588
210 1.72854
215 1.47435
220 1.34142
225 1.57153
230 1.54069
235 1.47522
240 1.58215
245 1.59401
250 1.55026
255 1.6539
260 1.53668
265 1.65491
270 1.76979
275 2.053
280 78.8722
285 313.703
290 86.6983
295 12.0516
300 3.33321
305 2.49965
310 2.27156
315 2.38282
320 2.26893
325 2.39997
330 2.28146
335 2.39471
340 2.25074
345 2.35096
350 2.48011
355 2.39567
360 2.37004
365 2.51967
370 2.41072
375 2.54721
380 2.49621
385 2.49754
390 2.67352
395 2.95307
400 2.93788
405 2.99624
410 3.13434
415 2.91518
420 3.16015
425 3.20976
430 3.39683
435 3.7783
440 3.66365
445 3.66009
450 4.30825
455 4.56164
460 5.14207
465 5.45999
470 5.54406
475 5.12002
480 5.78235
485 6.0838
490 6.15974
495 6.23742
500 6.57326
505 6.64451
510 7.17108
515 7.78594
520 8.11023
525 8.94843
530 9.86096
535 11.2611
540 13.4385
545 16.8387
550 22.3676
555 29.5787
560 45.1965
565 902.727
570 9999.9
575 9999.9
580 9298.54
585 1121.95
590 149.673
595 31.5573
600 16.1526
Ex : 583
200 1.24627
205 1.23632
210 1.34838
215 1.41068
220 1.30275
225 1.32022
230 1.39092
235 1.33117
240 1.32684
245 1.2016
250 1.4544
255 1.52852
260 1.54915
265 1.47178
270 1.54114
275 1.89282
280 9.36026
285 247.887
290 240.263
295 33.151
300 5.72663
305 2.44544
310 2.13777
315 2.07094
320 2.24226
325 2.0359
330 1.93549
335 1.94383
340 2.0252
345 2.10333
350 2.32008
355 2.29455
360 2.19772
365 2.485
370 2.42249
375 2.59305
380 2.6258
385 2.68163
390 2.51476
395 2.49665
400 2.53763
405 2.6181
410 2.89912
415 2.63183
420 2.91536
425 2.97644
430 3.16327
435 3.22444
440 3.45063
445 3.59305
450 3.48795
455 4.17356
460 4.83803
465 5.03276
470 5.27286
475 4.92413
480 5.22437
485 5.35739
490 5.56908
495 6.01334
500 5.77354
505 5.8497
510 6.6535
515 7.01429
520 7.29316
525 8.47484
530 8.5143
535 9.27272
540 10.8572
545 13.5914
550 16.4078
555 21.2443
560 28.8039
565 42.0664
570 802.744
575 9999.9
580 9999.9
585 7748.21
590 938.089
595 126.677
600 28.453
Ex : 588
200 1.29538
205 1.36114
210 1.33401
215 1.27922
220 1.29041
225 1.32049
230 1.2935
235 1.13416
240 1.15605
245 1.21376
250 1.31055
255 1.35702
260 1.23223
265 1.27643
270 1.51702
275 1.50302
280 1.96519
285 83.5017
290 363.368
295 107.083
300 14.3462
305 3.4247
310 2.0459
315 2.07495
320 2.20155
325 2.07719
330 1.9167
335 2.00016
340 1.95042
345 2.03137
350 2.20704
355 2.23007
360 2.13919
365 2.2638
370 2.10288
375 2.27111
380 2.36758
385 2.42374
390 2.82485
395 2.58654
400 2.71127
405 2.76366
410 2.58248
415 2.64094
420 2.80426
425 2.59548
430 2.8896
435 3.01231
440 3.0599
445 3.53397
450 3.76963
455 3.49893
460 4.23978
465 5.12795
470 5.08023
475 5.0113
480 4.73948
485 5.00836
490 5.13633
495 5.56338
500 5.70705
505 5.69299
510 5.9262
515 6.33928
520 6.24433
525 7.03274
530 7.2319
535 7.70981
540 8.93917
545 9.96661
550 12.2372
555 15.4196
560 20.2611
565 26.0488
570 37.8459
575 707.971
580 9999.9
585 9999.9
590 7234.47
595 874.146
600 119.59
Ex : 593
200 1.30066
205 1.23347
210 1.10436
215 1.12583
220 1.08916
225 0.999432
230 1.21952
235 1.20861
240 1.15462
245 1.118
250 1.00151
255 1.27342
260 1.38644
265 1.13383
270 1.43904
275 1.46101
280 1.8446
285 9.51982
290 282.182
295 284.383
300 39.5987
305 6.35281
310 2.40627
315 2.14962
320 2.15881
325 2.04219
330 1.89452
335 1.94519
340 1.97978
345 2.13479
350 1.8993
355 2.03636
360 2.28279
365 2.10392
370 2.19307
375 1.84779
380 1.9705
385 2.14615
390 2.1616
395 2.25797
400 2.43603
405 2.40977
410 2.43358
415 2.59332
420 2.45267
425 2.66996
430 2.90383
435 2.74016
440 2.89453
445 3.20312
450 3.34559
455 3.67859
460 3.71874
465 4.30862
470 4.34183
475 4.27774
480 4.40009
485 4.99894
490 4.4692
495 5.18677
500 5.10755
505 5.41331
510 5.406
515 5.37514
520 5.97962
525 6.09835
530 6.71741
535 7.47573
540 7.72145
545 8.16224
550 9.6803
555 12.5419
560 14.5499
565 18.2019
570 24.1563
575 34.0905
580 608.852
585 9999.9
590 9999.9
595 6388.19
600 958.453
Ex : 598
200 1.27421
205 1.0711
210 1.13271
215 1.12051
220 1.06762
225 1.08106
230 1.09906
235 1.19355
240 1.30186
245 1.23679
250 1.18039
255 1.16443
260 1.11642
265 1.13411
270 1.34837
275 1.53069
280 1.59075
285 2.12318
290 95.1837
295 420.885
300 129.418
305 16.985
310 3.73665
315 2.39278
320 2.08584
325 2.02537
330 2.03059
335 1.75614
340 1.76291
345 2.10884
350 1.89689
355 2.03106
360 2.10503
365 1.80189
370 2.02375
375 2.18566
380 1.89271
385 2.26125
390 2.13732
395 2.41295
400 2.42937
405 2.55767
410 2.44757
415 2.85434
420 2.61248
425 2.48369
430 2.39872
435 2.74007
440 2.91588
445 2.82197
450 2.98008
455 3.30777
460 3.49002
465 3.95742
470 3.94205
475 4.46599
480 4.38637
485 4.15937
490 4.66718
495 4.3707
500 4.6268
505 4.64912
510 4.90082
515 4.96722
520 5.44539
525 6.0399
530 6.41436
535 6.87879
540 7.02276
545 7.74146
550 8.29631
555 10.0452
560 11.3649
565 14.024
570 17.5963
575 21.8651
580 30.688
585 601.421
590 9999.9
595 9999.9
600 9999.9
Ex : 603
200 0.993634
205 1.18857
210 0.992636
215 1.04673
220 1.11218
225 0.9763
230 0.949738
235 0.970828
240 1.08829
245 0.987927
250 1.0863
255 1.09145
260 1.30019
265 1.29563
270 1.33633
275 1.25249
280 1.19935
285 1.87617
290 9.81921
295 319.63
300 347.088
305 48.6857
310 7.39656
315 2.565
320 1.77947
325 2.15243
330 2.19513
335 1.81322
340 2.0996
345 1.81098
350 2.1055
355 1.88441
360 2.04353
365 1.79686
370 2.08566
375 2.06591
380 2.16264
385 2.22145
390 2.31505
395 2.12371
400 2.33101
405 2.18201
410 2.11839
415 2.32674
420 2.42846
425 2.52047
430 2.56627
435 2.65607
440 2.8737
445 2.93058
450 3.15221
455 3.28201
460 3.47732
465 3.95221
470 3.82023
475 3.80248
480 4.09189
485 4.58909
490 4.91424
495 4.34825
500 4.25985
505 4.89942
510 4.57725
515 4.65284
520 4.74232
525 5.17256
530 5.76041
535 6.07674
540 6.94539
545 6.76706
550 7.19794
555 8.36158
560 9.58473
565 10.7642
570 13.4767
575 15.7153
580 20.9123
585 26.9058
590 527.698
595 9999.9
600 9999.9
