File format V 1.0
jeu. 12. mai 16:17:30 2016
Operator : 
Comments : 

=============================================
SpectroFluorometer parameters
Mode : 3D measurement
Data : Fluorescence
Phospho. : Ordinary
Spectrum : Fluorescence

Scan speed : 2400 nm/mn
Response : 100 ms
PM Voltage : 700 V
Shutter : On

Lambda Ex. Start : 203
Lambda Ex. End : 603
Lambda Ex. Step : 5
Ex. Slit : 5 nm

Lambda Em. Start : 200
Lambda Em. End : 600
Lambda Em. Step : 5
Em. Slit : 5 nm

Repetition : 1
Decal lambda em : 10
=============================================
DATA
Ex : 203
200 6.93789
205 8.47669
210 8.94563
215 6.49931
220 12.1508
225 9.54845
230 8.28047
235 11.417
240 11.2001
245 12.2079
250 10.5735
255 9.57064
260 13.0054
265 11.0627
270 13.2908
275 10.9272
280 14.9276
285 22.2598
290 17.4279
295 14.0292
300 13.0097
305 9.79833
310 16.4058
315 18.333
320 21.1813
325 19.227
330 24.62
335 27.049
340 21.2505
345 24.6992
350 24.2896
355 19.9909
360 22.8043
365 30.0787
370 21.7763
375 26.3543
380 29.65
385 29.6292
390 26.4081
395 28.0827
400 26.7889
405 28.8918
410 31.2032
415 37.6855
420 30.6815
425 28.1611
430 33.4796
435 28.375
440 27.2653
445 30.1922
450 31.3371
455 31.7777
460 38.3161
465 34.0556
470 38.1133
475 36.4728
480 33.7851
485 29.089
490 31.2229
495 29.1924
500 24.274
505 25.5724
510 31.5376
515 27.3023
520 27.9517
525 27.7026
530 32.5421
535 23.2518
540 26.8166
545 23.7332
550 23.5637
555 28.2406
560 33.3647
565 32.2636
570 31.7548
575 23.4753
580 23.9801
585 21.4805
590 24.0807
595 22.6903
600 11.4441
Ex : 208
200 10.3275
205 9.99456
210 11.0607
215 9.94637
220 11.5988
225 9.09659
230 9.93636
235 10.5926
240 10.6034
245 8.43173
250 11.0274
255 11.1884
260 10.0831
265 9.98354
270 13.237
275 14.5125
280 14.1811
285 14.9847
290 16.695
295 13.1953
300 14.8105
305 17.8845
310 16.5805
315 13.4665
320 17.6603
325 17.2819
330 23.8263
335 19.0591
340 24.2545
345 27.7603
350 25.0695
355 28.1613
360 23.8512
365 28.5651
370 32.7855
375 23.5393
380 21.6702
385 29.7515
390 29.8214
395 29.4215
400 30.4803
405 24.9382
410 30.5908
415 33.977
420 27.7554
425 35.0992
430 27.2106
435 30.9126
440 29.3296
445 30.8563
450 32.313
455 36.3344
460 30.9533
465 27.8479
470 32.2385
475 29.4193
480 32.0973
485 33.7635
490 30.4231
495 24.2123
500 27.6848
505 27.1132
510 27.96
515 22.8101
520 26.5552
525 22.5184
530 26.4512
535 23.1997
540 25.7561
545 30.3876
550 25.5321
555 28.2205
560 34.4417
565 27.9265
570 25.9377
575 22.0174
580 25.6839
585 28.2979
590 26.901
595 21.4341
600 32.8655
Ex : 213
200 10.0867
205 9.0083
210 8.64454
215 8.87093
220 8.34881
225 12.1557
230 8.92852
235 8.74973
240 8.65569
245 12.2827
250 9.02761
255 10.4902
260 13.1167
265 10.7676
270 7.99141
275 13.3968
280 16.7419
285 16.3294
290 14.4985
295 20.5336
300 16.3461
305 15.4086
310 17.432
315 16.874
320 17.2811
325 18.7248
330 18.7904
335 23.6364
340 19.3168
345 19.4489
350 21.8591
355 23.2378
360 21.7326
365 27.9268
370 24.1738
375 27.8384
380 28.6673
385 31.7027
390 41.2126
395 26.3224
400 25.7154
405 30.8542
410 34.2217
415 30.7708
420 26.3725
425 26.4168
430 24.0844
435 34.0933
440 28.1733
445 31.6589
450 29.4995
455 31.9246
460 30.2717
465 39.3135
470 34.0139
475 33.5714
480 30.6634
485 34.0583
490 28.6844
495 28.3594
500 26.6331
505 32.2204
510 26.7382
515 30.01
520 31.8482
525 21.434
530 28.9418
535 27.5147
540 26.9843
545 27.0978
550 29.3915
555 23.271
560 27.7925
565 29.562
570 30.5339
575 24.494
580 22.7424
585 29.9652
590 21.6717
595 24.7124
600 44.2422
Ex : 218
200 8.9096
205 7.96057
210 12.787
215 7.35549
220 7.86301
225 10.1677
230 7.78544
235 9.53699
240 9.57391
245 9.2181
250 11.0087
255 7.60388
260 11.5194
265 10.1779
270 8.62632
275 14.028
280 11.6739
285 12.8347
290 12.1195
295 12.1074
300 16.0989
305 14.3059
310 16.4618
315 20.417
320 20.4265
325 17.3995
330 22.2245
335 21.972
340 24.2588
345 20.5328
350 20.7356
355 26.3677
360 26.2993
365 21.8068
370 23.1626
375 27.3673
380 29.4789
385 27.1487
390 27.5326
395 27.7202
400 28.1775
405 32.347
410 23.7258
415 30.1539
420 30.5661
425 24.7621
430 25.9962
435 30.7629
440 30.4764
445 28.0754
450 31.4814
455 29.886
460 35.1909
465 34.519
470 35.3543
475 33.2824
480 26.2263
485 39.4145
490 33.194
495 25.8505
500 26.5961
505 26.9936
510 29.8624
515 24.5073
520 27.7913
525 25.945
530 26.5532
535 25.4249
540 24.9921
545 33.0133
550 29.7034
555 26.4407
560 27.0555
565 27.8636
570 25.5012
575 31.1698
580 24.9833
585 25.4969
590 23.6683
595 22.1521
600 35.7535
Ex : 223
200 14.0585
205 10.9001
210 11.1574
215 11.0956
220 5.58348
225 9.03178
230 9.96484
235 9.55532
240 8.97815
245 12.8408
250 10.1819
255 13.1871
260 13.4574
265 8.62568
270 10.3266
275 10.468
280 13.0211
285 13.1077
290 13.8985
295 19.4146
300 14.8715
305 13.4616
310 18.2221
315 18.2628
320 20.3809
325 21.8345
330 20.6709
335 22.0632
340 20.9709
345 22.5498
350 24.1045
355 22.8819
360 29.388
365 26.8991
370 22.2288
375 26.3041
380 26.4637
385 25.8612
390 25.4269
395 27.8474
400 29.332
405 31.5705
410 30.1065
415 29.116
420 32.9891
425 28.6672
430 29.3363
435 27.1663
440 27.2114
445 30.2478
450 31.1007
455 33.4792
460 34.4179
465 33.7266
470 29.8597
475 31.4502
480 27.7422
485 26.4586
490 25.0591
495 27.7892
500 23.5019
505 26.7313
510 22.4908
515 27.9465
520 28.4581
525 27.3064
530 22.0693
535 27.4752
540 30.525
545 31.9193
550 24.5376
555 31.9257
560 34.5566
565 29.3665
570 28.2381
575 32.8242
580 25.4806
585 28.0118
590 24.4017
595 20.2739
600 61.2396
Ex : 228
200 6.76056
205 7.97883
210 9.09961
215 9.24707
220 11.8588
225 14.6604
230 9.09637
235 7.40934
240 7.18837
245 8.16988
250 8.18711
255 7.99978
260 10.6586
265 12.2858
270 9.86133
275 15.402
280 11.3246
285 12.7562
290 16.949
295 17.1305
300 18.1731
305 16.1946
310 16.7464
315 15.4707
320 19.7408
325 24.9368
330 24.2426
335 21.8672
340 23.9265
345 23.64
350 19.6923
355 20.7947
360 21.9395
365 19.894
370 28.9067
375 26.9419
380 25.1725
385 25.5241
390 31.7107
395 27.5543
400 30.9615
405 30.7626
410 26.1242
415 26.347
420 25.391
425 25.4505
430 27.1418
435 26.4571
440 34.2555
445 31.6765
450 59.4177
455 96.9372
460 89.9597
465 54.7799
470 36.0877
475 32.1712
480 29.5686
485 32.3263
490 29.0152
495 27.369
500 23.8339
505 23.7518
510 28.1452
515 26.7202
520 23.2125
525 28.2924
530 23.6811
535 27.154
540 23.6413
545 24.441
550 31.0232
555 28.0302
560 29.9723
565 34.5013
570 28.8658
575 29.4117
580 30.0852
585 26.9911
590 25.5133
595 27.3436
600 40.1549
Ex : 233
200 7.78166
205 7.05941
210 7.04548
215 8.26063
220 8.803
225 20.9984
230 34.8978
235 16.9554
240 9.30176
245 8.48346
250 7.95655
255 8.49404
260 8.59732
265 11.9431
270 10.2728
275 12.7758
280 12.4039
285 15.4233
290 14.5194
295 14.837
300 14.2619
305 15.4224
310 18.1578
315 15.387
320 18.7888
325 20.7011
330 22.1043
335 20.7069
340 24.7024
345 19.3171
350 25.7279
355 26.6093
360 22.9197
365 29.4199
370 21.3241
375 24.5243
380 22.5581
385 24.9804
390 24.0437
395 26.8144
400 26.6808
405 27.6963
410 28.2457
415 29.665
420 28.2739
425 25.4732
430 29.7672
435 25.2548
440 22.1747
445 25.1844
450 28.9516
455 65.7758
460 203.795
465 308.475
470 222.81
475 67.5425
480 34.1909
485 28.0889
490 26.3854
495 25.8968
500 32.3439
505 28.2999
510 25.2619
515 24.3293
520 21.6184
525 23.6419
530 21.5261
535 25.0752
540 24.1777
545 25.5164
550 24.6559
555 27.7534
560 25.6803
565 28.2279
570 25.0562
575 27.1181
580 31.1345
585 22.7985
590 25.3929
595 22.1054
600 25.5568
Ex : 238
200 5.54688
205 6.74742
210 6.38279
215 5.82558
220 6.23579
225 9.14656
230 51.4215
235 80.694
240 22.7456
245 11.4863
250 8.52899
255 8.9681
260 7.63352
265 8.42491
270 6.50242
275 8.44992
280 11.9713
285 12.4108
290 12.9145
295 13.2707
300 13.254
305 15.4836
310 15.3472
315 13.5208
320 22.6125
325 21.062
330 21.7261
335 22.403
340 23.4002
345 23.3666
350 24.6148
355 24.7775
360 22.4092
365 24.9845
370 24.0803
375 22.202
380 25.0882
385 24.9341
390 26.2276
395 26.5837
400 23.1916
405 22.2222
410 25.0778
415 24.2255
420 24.6299
425 23.1155
430 24.1172
435 23.2384
440 23.4279
445 23.4017
450 24.7056
455 25.1342
460 38.7142
465 172.469
470 494.362
475 570.223
480 336.106
485 85.3732
490 34.4748
495 24.7961
500 23.1908
505 23.7334
510 25.0167
515 30.8805
520 25.7553
525 25.89
530 29.8994
535 29.1261
540 21.5879
545 24.5703
550 27.2218
555 33.1634
560 26.9662
565 28.0221
570 27.092
575 27.3176
580 29.6779
585 26.1817
590 20.064
595 24.6481
600 31.6951
Ex : 243
200 3.34839
205 6.59908
210 6.80384
215 5.13895
220 7.14156
225 6.63881
230 11.2895
235 75.4671
240 111.277
245 31.3548
250 10.4574
255 7.61421
260 11.8921
265 9.83284
270 7.96091
275 7.84338
280 10.6497
285 11.4493
290 12.7812
295 13.8457
300 13.6919
305 13.8096
310 17.488
315 15.2592
320 15.0266
325 18.6205
330 18.2846
335 21.9587
340 18.6319
345 23.8926
350 22.0616
355 19.7649
360 18.2648
365 19.8201
370 20.3082
375 21.1554
380 23.1759
385 25.1342
390 22.5715
395 22.1708
400 21.4942
405 25.6402
410 23.4153
415 23.5174
420 21.6059
425 21.2532
430 20.5581
435 19.1802
440 19.8952
445 17.5342
450 18.4001
455 23.5493
460 22.6646
465 27.1824
470 50.8941
475 305.682
480 611.008
485 674.202
490 377.792
495 81.6509
500 30.8568
505 22.8211
510 27.5927
515 26.8085
520 27.4752
525 32.9301
530 26.7062
535 27.8292
540 25.3706
545 27.3513
550 25.6991
555 22.8053
560 27.2146
565 26.7999
570 27.4174
575 24.5707
580 21.9252
585 21.5469
590 19.7212
595 21.5489
600 23.5438
Ex : 248
200 3.5726
205 5.46749
210 4.96135
215 3.71738
220 3.33555
225 7.9833
230 4.83527
235 13.27
240 97.5732
245 134.269
250 36.5286
255 8.04935
260 7.41802
265 8.81519
270 8.94766
275 8.97183
280 6.63358
285 9.64662
290 10.2576
295 12.8934
300 10.1
305 14.1576
310 13.4415
315 14.8938
320 16.4899
325 18.2086
330 14.7475
335 15.9338
340 16.562
345 17.0096
350 19.667
355 19.9809
360 17.6893
365 21.6336
370 19.1943
375 22.2268
380 20.8187
385 18.9921
390 22.4051
395 20.2906
400 21.5583
405 18.915
410 19.7693
415 20.0878
420 17.8505
425 16.9121
430 15.9126
435 18.8702
440 16.6593
445 17.8841
450 20.4014
455 19.988
460 20.6614
465 21.3579
470 22.2487
475 20.5448
480 74.1343
485 364.458
490 747.834
495 699.843
500 332.047
505 69.8302
510 23.2557
515 21.9516
520 21.9589
525 25.375
530 29.3198
535 30.3719
540 28.2749
545 26.307
550 28.094
555 26.384
560 24.494
565 22.1447
570 23.0602
575 18.9147
580 19.8579
585 20.1398
590 19.1443
595 19.0924
600 2.17265
Ex : 253
200 3.36722
205 5.80228
210 3.81228
215 4.77126
220 4.34289
225 6.06354
230 4.45918
235 4.21525
240 10.3927
245 101.841
250 169.664
255 57.389
260 13.6359
265 9.24404
270 8.98346
275 9.88812
280 9.41577
285 10.0612
290 9.99
295 12.3986
300 14.4916
305 13.991
310 11.2523
315 12.7821
320 14.543
325 13.8681
330 16.7477
335 15.8734
340 16.5188
345 19.1579
350 16.5328
355 15.7665
360 17.898
365 17.2673
370 16.5873
375 16.0707
380 16.5692
385 17.3771
390 18.0582
395 16.0696
400 14.6087
405 16.7181
410 16.3746
415 15.4525
420 14.2255
425 13.3591
430 14.6319
435 16.1666
440 12.2143
445 12.8375
450 14.0277
455 13.0214
460 15.7262
465 18.2857
470 15.9896
475 16.7928
480 16.269
485 17.6182
490 69.2308
495 346.715
500 743.796
505 812.809
510 553.678
515 130.072
520 36.6702
525 25.6871
530 21.5919
535 28.4536
540 28.9205
545 31.1498
550 30.6137
555 30.8457
560 26.8384
565 25.9691
570 22.5807
575 21.3232
580 21.2129
585 19.4923
590 20.5691
595 17.9237
600 36.1182
Ex : 258
200 2.92525
205 2.79633
210 2.8028
215 3.38293
220 3.07429
225 2.6222
230 3.72053
235 3.1848
240 3.65214
245 12.2712
250 217.311
255 468.559
260 144.949
265 25.367
270 10.9588
275 11.3247
280 14.4796
285 12.229
290 11.8146
295 11.8279
300 12.5277
305 13.4837
310 14.7994
315 13.8469
320 14.8761
325 14.0688
330 14.6392
335 14.1173
340 16.3436
345 15.0944
350 16.2421
355 15.5684
360 15.3202
365 14.6151
370 14.6803
375 15.5251
380 15.2193
385 15.0059
390 15.0934
395 14.1185
400 14.8529
405 13.7136
410 16.08
415 13.8147
420 16.2347
425 13.4847
430 13.2247
435 13.7848
440 13.5639
445 13.1516
450 12.8661
455 14.5887
460 15.6732
465 15.4297
470 14.6125
475 13.1487
480 13.5468
485 14.4994
490 15.74
495 14.7539
500 74.8007
505 662.753
510 2421.99
515 2994.73
520 1564.73
525 281.133
530 61.4072
535 34.1761
540 29.1474
545 28.3107
550 28.4851
555 38.0912
560 36.1628
565 34.252
570 29.2534
575 24.2361
580 23.6325
585 23.2216
590 21.5955
595 20.0977
600 24.2058
Ex : 263
200 2.80101
205 2.33407
210 3.27022
215 3.74587
220 3.64256
225 3.30445
230 2.44768
235 2.52952
240 3.48791
245 3.62443
250 34.1492
255 552.447
260 1080.88
265 276.861
270 41.7889
275 15.1691
280 14.6038
285 17.1465
290 15.2398
295 14.9654
300 16.2979
305 17.1208
310 16.8139
315 13.6772
320 15.0969
325 16.2422
330 14.8463
335 14.7301
340 14.5634
345 16.0806
350 15.7228
355 14.3994
360 13.9419
365 15.0137
370 14.4793
375 12.7814
380 14.6454
385 13.0875
390 11.986
395 12.7467
400 12.206
405 12.1257
410 13.0898
415 11.2367
420 10.8187
425 11.8712
430 13.1458
435 10.2806
440 10.4984
445 11.8695
450 13.0766
455 13.0076
460 13.3225
465 12.2613
470 12.9417
475 13.8807
480 13.8087
485 11.8306
490 13.7318
495 13.7374
500 15.3298
505 19.6927
510 229.561
515 1856.02
520 4945.39
525 5334.32
530 2376.64
535 413.625
540 82.1733
545 42.3129
550 32.5009
555 34.7586
560 35.5071
565 39.8589
570 40.7792
575 41.5127
580 35.9037
585 27.987
590 28.0331
595 24.8183
600 27.7364
Ex : 268
200 3.02522
205 2.04566
210 2.72836
215 2.41444
220 2.66854
225 2.71446
230 2.52838
235 3.39837
240 3.62242
245 3.43828
250 3.96115
255 50.7922
260 939.646
265 1725.02
270 505.776
275 72.2775
280 22.4077
285 19.4601
290 21.0192
295 20.6437
300 17.82
305 18.5798
310 16.7544
315 16.4422
320 16.8902
325 17.1226
330 16.4656
335 16.1292
340 16.0794
345 14.7591
350 13.7489
355 11.9614
360 12.4144
365 12.8588
370 12.9891
375 11.1023
380 11.1245
385 10.4061
390 10.9376
395 11.6334
400 9.9187
405 10.6429
410 9.69099
415 10.3958
420 10.6804
425 10.6297
430 9.22045
435 9.96399
440 11.1499
445 11.1885
450 11.9059
455 11.1811
460 11.7971
465 12.457
470 13.0287
475 10.8077
480 11.4147
485 10.7249
490 12.2146
495 11.1418
500 12.5362
505 14.3297
510 15.7691
515 23.2219
520 362.785
525 2913.58
530 7892.55
535 8511.34
540 3767.18
545 623.713
550 112.155
555 51.7031
560 40.5617
565 37.6303
570 40.1908
575 42.5776
580 47.3916
585 43.8123
590 38.1279
595 34.6015
600 24.3543
Ex : 273
200 1.9484
205 2.10447
210 3.10866
215 2.32349
220 2.00776
225 1.85213
230 2.72605
235 2.65593
240 2.97481
245 2.84232
250 3.43347
255 5.26239
260 86.6402
265 1590.92
270 2822.68
275 722.859
280 101.794
285 29.2325
290 23.4405
295 25.3135
300 22.1662
305 19.647
310 17.6849
315 17.7986
320 17.049
325 16.7603
330 15.0387
335 15.9194
340 15.3347
345 14.594
350 13.7063
355 13.8163
360 11.8408
365 11.8208
370 11.1939
375 11.004
380 10.1205
385 11.4694
390 10.7532
395 10.1854
400 11.055
405 10.0201
410 10.2043
415 10.1967
420 9.96344
425 9.1006
430 9.98892
435 9.72633
440 10.8655
445 9.27211
450 10.1755
455 10.0186
460 10.0957
465 11.7958
470 10.2488
475 11.6386
480 10.3387
485 11.6892
490 12.5501
495 10.0326
500 11.6052
505 12.1932
510 13.2217
515 15.2225
520 18.5132
525 30.4131
530 645.671
535 4865.45
540 9999.9
545 9999.9
550 4698.79
555 757.842
560 136.689
565 58.8686
570 45.5986
575 42.7428
580 40.6009
585 41.331
590 44.3386
595 44.6339
600 31.0611
Ex : 278
200 2.42035
205 2.24219
210 1.93481
215 2.49107
220 1.93501
225 2.56235
230 2.2707
235 2.92212
240 2.91592
245 2.91519
250 3.7452
255 4.06325
260 6.97145
265 123.321
270 2311.63
275 4046.08
280 984.069
285 134.928
290 34.9523
295 24.0829
300 26.1812
305 22.8777
310 19.3537
315 17.7326
320 16.86
325 16.7603
330 16.1029
335 15.0385
340 14.963
345 15.3285
350 13.3062
355 12.6332
360 12.397
365 11.0373
370 11.2884
375 10.5749
380 10.502
385 10.7701
390 10.0792
395 10.4189
400 10.0022
405 9.56303
410 9.57994
415 9.34168
420 9.5203
425 9.68783
430 10.1683
435 9.29053
440 9.4787
445 8.91852
450 9.23528
455 9.59149
460 8.78109
465 10.0698
470 10.2912
475 9.71788
480 10.4701
485 10.1805
490 10.2011
495 9.94211
500 9.94701
505 9.84731
510 10.2278
515 12.3568
520 15.1093
525 17.2542
530 22.189
535 38.2973
540 949.213
545 6594
550 9999.9
555 9999.9
560 5134.65
565 834.855
570 148.16
575 61.2809
580 45.2693
585 39.1365
590 35.9283
595 36.974
600 38.8173
Ex : 283
200 2.07191
205 2.16658
210 2.50814
215 2.11994
220 2.36709
225 2.629
230 2.6099
235 2.99983
240 2.99436
245 2.451
250 3.57006
255 4.53012
260 5.252
265 7.62585
270 169.276
275 3064.45
280 4849.43
285 1192.26
290 157.347
295 33.8041
300 19.8242
305 21.0912
310 20.0594
315 15.9489
320 14.7161
325 15.6886
330 14.4437
335 13.8172
340 14.4265
345 13.3005
350 12.7607
355 12.0417
360 11.5654
365 11.3897
370 10.5499
375 10.0812
380 9.76294
385 10.484
390 10.1941
395 9.8301
400 10.5777
405 10.1075
410 10.034
415 9.28385
420 9.75008
425 9.95253
430 9.48033
435 9.72816
440 9.35397
445 9.07332
450 8.78072
455 8.88628
460 9.3829
465 9.22165
470 9.14332
475 9.32997
480 9.74529
485 9.06689
490 9.40153
495 8.56664
500 9.7091
505 8.90727
510 9.7654
515 10.3985
520 11.9189
525 12.765
530 14.1053
535 18.1295
540 25.6441
545 45.2395
550 1181.81
555 7570.2
560 9999.9
565 9999.9
570 5170.43
575 818.757
580 140.261
585 53.0095
590 35.8567
595 29.8384
600 24.7222
Ex : 288
200 2.17977
205 2.38918
210 2.36039
215 2.12272
220 2.16232
225 2.07661
230 2.25261
235 2.2854
240 2.66733
245 2.92934
250 2.88967
255 3.42522
260 4.08394
265 5.81859
270 9.11609
275 189.284
280 3475.78
285 5499.12
290 1332.23
295 172.656
300 33.9834
305 17.8913
310 18.1367
315 20.2717
320 16.6221
325 13.814
330 12.4542
335 12.8656
340 13.0309
345 12.9747
350 11.0352
355 10.6036
360 10.3556
365 10.2868
370 9.80598
375 9.9529
380 9.76385
385 10.3289
390 9.66296
395 9.98056
400 10.5245
405 9.90415
410 10.0904
415 9.81734
420 9.42381
425 9.32419
430 9.1764
435 8.79676
440 8.3279
445 8.39085
450 9.02401
455 8.33818
460 8.43061
465 8.7166
470 8.88034
475 8.48162
480 8.13221
485 8.57556
490 7.81799
495 7.71762
500 7.78511
505 7.75636
510 8.45243
515 9.08929
520 9.17596
525 10.1569
530 11.1816
535 13.1371
540 15.1897
545 19.3952
550 27.1969
555 48.6375
560 1298.38
565 7865.03
570 9999.9
575 9999.9
580 4943.72
585 757.497
590 125.058
595 45.0543
600 30.3674
Ex : 293
200 1.72942
205 1.57985
210 1.58645
215 1.72878
220 1.86759
225 2.12194
230 1.89207
235 2.01538
240 2.27796
245 2.36273
250 2.83348
255 3.01436
260 3.57299
265 4.12569
270 6.46479
275 9.47934
280 243.077
285 3901.7
290 5858.6
295 1412.44
300 182.172
305 35.12
310 17.4598
315 17.868
320 19.3678
325 15.8599
330 13.0827
335 11.6558
340 11.6433
345 11.1228
350 10.9823
355 10.1689
360 9.63213
365 8.96162
370 9.77502
375 10.0138
380 9.4892
385 10.11
390 9.52831
395 11.2035
400 10.1811
405 9.59601
410 9.74248
415 10.1323
420 9.43619
425 9.51849
430 8.83838
435 8.58938
440 8.01752
445 8.37124
450 7.79787
455 8.03338
460 7.96233
465 8.04866
470 8.17422
475 7.87118
480 6.84167
485 6.96649
490 6.98879
495 7.65383
500 6.9248
505 7.56702
510 7.44682
515 7.40573
520 8.04646
525 7.95847
530 9.50584
535 10.0683
540 11.2662
545 12.8791
550 15.5967
555 20.5242
560 27.8355
565 53.5175
570 1498.36
575 8624.31
580 9999.9
585 9999.9
590 4246.86
595 623.007
600 112.88
Ex : 298
200 1.64377
205 1.88654
210 1.78548
215 1.40603
220 1.62415
225 1.71429
230 2.21156
235 1.98341
240 1.8534
245 2.42657
250 2.02511
255 2.58892
260 3.17149
265 3.57944
270 4.62293
275 6.5729
280 10.3334
285 262.557
290 4322.28
295 6273.58
300 1531.4
305 196.05
310 37.2329
315 16.9585
320 16.5354
325 18.4675
330 15.94
335 12.3473
340 10.6008
345 10.769
350 10.4081
355 9.60756
360 9.1598
365 9.01906
370 9.11221
375 8.48244
380 9.38929
385 9.28215
390 8.62942
395 9.90841
400 9.41942
405 9.41596
410 8.98224
415 9.53776
420 8.61912
425 8.36944
430 8.21317
435 7.87558
440 7.63357
445 7.38188
450 6.7771
455 7.06604
460 6.59949
465 7.17004
470 6.69453
475 6.70734
480 7.12646
485 6.94525
490 7.48291
495 6.79625
500 6.34356
505 6.25554
510 6.3702
515 6.60455
520 7.15093
525 7.52056
530 7.95282
535 7.8395
540 8.97222
545 10.1204
550 11.6399
555 13.4327
560 16.2349
565 20.7712
570 27.9099
575 57.4943
580 1685.55
585 8915.92
590 9999.9
595 9999.9
600 7155.74
Ex : 303
200 1.74499
205 1.69587
210 1.90922
215 1.60858
220 1.78151
225 1.63154
230 1.76943
235 2.04931
240 2.42771
245 1.96874
250 2.01135
255 2.08102
260 2.45448
265 2.99352
270 4.00754
275 4.95007
280 6.8828
285 11.3322
290 277.639
295 4702.17
300 7091.39
305 1665.3
310 211.803
315 39.6085
320 17.6817
325 15.7631
330 18.2918
335 15.3386
340 12.0319
345 10.2414
350 8.88503
355 8.31015
360 8.02435
365 8.6854
370 7.99444
375 8.76976
380 7.70396
385 8.57737
390 8.75596
395 8.29086
400 8.70342
405 9.03135
410 8.65087
415 8.0204
420 7.69069
425 7.85387
430 7.47366
435 7.2054
440 6.78379
445 6.76427
450 7.05302
455 6.80904
460 6.6501
465 6.8872
470 6.57115
475 6.2651
480 5.69762
485 5.55053
490 5.66237
495 5.69767
500 5.99915
505 5.64854
510 5.438
515 5.19678
520 5.7256
525 6.16667
530 5.97702
535 6.19944
540 7.4504
545 7.67494
550 8.17828
555 9.48771
560 11.6181
565 13.3523
570 15.2429
575 19.4323
580 25.79
585 59.1819
590 1821.42
595 8938.44
600 9999.9
Ex : 308
200 1.47309
205 1.52481
210 1.50282
215 1.97166
220 1.73439
225 1.80302
230 1.73274
235 1.61591
240 1.81158
245 1.84087
250 1.93696
255 2.26022
260 2.64719
265 2.79879
270 3.29633
275 3.87977
280 5.03051
285 6.92354
290 10.8532
295 328.169
300 5212.22
305 7591.65
310 1780.95
315 225.551
320 41.4443
325 17.5173
330 14.8482
335 17.8318
340 15.5715
345 11.2598
350 8.80194
355 8.05689
360 8.2591
365 8.08104
370 7.32897
375 8.03218
380 7.61101
385 7.45681
390 7.6105
395 8.28278
400 7.85708
405 7.59874
410 7.91635
415 8.15537
420 7.92268
425 7.0417
430 6.36495
435 6.30712
440 6.05001
445 5.95499
450 6.12125
455 6.07878
460 6.35647
465 6.50553
470 6.22585
475 5.43094
480 5.50846
485 5.03274
490 5.6461
495 5.50691
500 5.66633
505 5.30105
510 5.08524
515 4.93873
520 4.7253
525 5.35564
530 5.34755
535 5.43075
540 5.8758
545 6.13256
550 7.08663
555 7.69913
560 8.66234
565 9.18849
570 10.7497
575 12.0435
580 14.8594
585 19.2335
590 25.7642
595 69.8274
600 288.061
Ex : 313
200 1.14064
205 1.25566
210 1.39715
215 1.52682
220 1.74066
225 1.66973
230 1.66204
235 1.63009
240 1.50124
245 1.69187
250 1.79933
255 1.9432
260 2.07683
265 2.23814
270 2.66384
275 3.23488
280 3.96418
285 5.13485
290 7.34287
295 12.5155
300 349.847
305 5879.01
310 8431.86
315 1972.87
320 247.452
325 43.9039
330 16.5781
335 14.2066
340 16.1329
345 15.9131
350 12.0389
355 8.89334
360 7.86603
365 7.79384
370 7.3484
375 7.21515
380 7.31041
385 7.12953
390 6.77188
395 7.31321
400 6.67734
405 6.94327
410 6.88195
415 6.69802
420 6.38595
425 6.06156
430 6.04243
435 6.15338
440 5.39326
445 6.00835
450 5.43691
455 5.6355
460 5.71021
465 5.60238
470 5.92487
475 5.67174
480 5.23982
485 4.93338
490 4.91389
495 5.09686
500 5.05519
505 4.94386
510 4.81081
515 4.97275
520 4.97621
525 4.83767
530 4.77073
535 5.04188
540 5.27624
545 5.40974
550 5.87375
555 6.7172
560 7.27593
565 7.32294
570 7.66876
575 8.81653
580 10.0944
585 11.9307
590 14.4497
595 17.7622
600 21.407
Ex : 318
200 1.55811
205 1.35568
210 1.38462
215 1.44112
220 1.44662
225 1.45084
230 1.60277
235 1.56286
240 1.59703
245 1.54456
250 1.70465
255 1.79152
260 1.95142
265 2.17706
270 2.37127
275 3.09871
280 3.31385
285 4.28643
290 5.20618
295 7.65012
300 13.4013
305 442.9
310 6690.68
315 9490.54
320 2188.11
325 273.787
330 47.576
335 17.8805
340 13.5778
345 15.7102
350 16.0844
355 12.5523
360 8.816
365 7.39298
370 7.42907
375 7.0348
380 6.60255
385 6.70964
390 7.13555
395 6.70205
400 6.41083
405 6.4359
410 6.47949
415 6.24073
420 6.03761
425 5.75352
430 5.38581
435 5.4387
440 5.37563
445 5.12178
450 5.40321
455 5.30483
460 5.33134
465 5.7467
470 4.9909
475 5.07689
480 4.79573
485 4.99916
490 4.88482
495 4.83019
500 4.62455
505 4.54348
510 5.02322
515 4.57021
520 4.57847
525 4.24938
530 4.4017
535 4.69481
540 4.79723
545 4.54643
550 4.88065
555 5.4628
560 6.2075
565 6.14688
570 6.65944
575 7.06854
580 7.81408
585 8.9643
590 10.1851
595 11.4651
600 13.0115
Ex : 323
200 1.43611
205 1.56521
210 1.38329
215 1.56396
220 1.66198
225 1.59875
230 1.48582
235 1.57856
240 1.59492
245 1.76047
250 1.86871
255 1.81725
260 2.02738
265 2.00585
270 2.40516
275 2.47228
280 3.03274
285 3.4616
290 4.25176
295 5.95292
300 8.17157
305 13.5954
310 462.66
315 7285.28
320 9999.9
325 2470.59
330 307.903
335 52.4053
340 18.6483
345 13.422
350 13.7527
355 15.3421
360 13.0039
365 9.66625
370 8.02773
375 7.08046
380 7.0202
385 7.02459
390 6.8681
395 6.47583
400 5.99236
405 5.91816
410 5.94642
415 5.78845
420 5.37244
425 5.64699
430 5.69465
435 5.44566
440 5.23146
445 5.09452
450 5.27763
455 5.11395
460 5.19733
465 5.01909
470 4.88655
475 4.8471
480 4.62509
485 4.47316
490 4.80211
495 4.36997
500 4.55438
505 4.34017
510 4.25441
515 4.47552
520 4.4981
525 4.01663
530 4.21053
535 4.35799
540 4.2359
545 4.6418
550 4.75918
555 4.90013
560 5.20971
565 5.22481
570 5.52511
575 5.89547
580 5.8429
585 6.53937
590 7.26365
595 8.57354
600 10.2808
Ex : 328
200 1.3017
205 1.33628
210 1.60281
215 1.40757
220 1.47987
225 1.2456
230 1.44907
235 1.56388
240 1.50487
245 1.61511
250 1.60287
255 1.828
260 2.01644
265 2.18478
270 2.49366
275 2.61035
280 2.81954
285 3.23637
290 3.80632
295 4.8253
300 6.22359
305 8.56185
310 15.2066
315 498.113
320 8100.01
325 9999.9
330 2503.99
335 312.473
340 53.229
345 18.875
350 13.1903
355 13.4217
360 14.642
365 13.2802
370 9.80195
375 7.70437
380 7.05894
385 7.14063
390 6.73716
395 6.30321
400 6.0119
405 5.73723
410 5.66352
415 5.56477
420 5.50876
425 5.27068
430 5.15384
435 4.84245
440 4.8704
445 4.66761
450 4.91897
455 4.60039
460 4.85881
465 4.96717
470 4.61188
475 4.64796
480 4.66207
485 4.53804
490 4.92298
495 4.49965
500 4.57898
505 4.43905
510 4.28438
515 4.22354
520 3.94372
525 4.23131
530 4.1049
535 4.27162
540 3.89933
545 4.13058
550 3.91545
555 4.44856
560 4.53345
565 4.54735
570 4.8627
575 5.19188
580 4.93977
585 5.95154
590 6.20912
595 6.37369
600 4.6768
Ex : 333
200 1.34693
205 1.31239
210 1.2909
215 1.30981
220 1.17335
225 1.37319
230 1.49838
235 1.42205
240 1.52185
245 1.61199
250 1.45142
255 1.55479
260 1.78523
265 1.94587
270 2.01911
275 2.09218
280 2.58061
285 2.87497
290 3.34145
295 3.79374
300 4.73047
305 6.22373
310 9.39447
315 16.3812
320 590.045
325 8648.38
330 9999.9
335 2622.63
340 326.141
345 55.0422
350 18.5383
355 12.4825
360 12.0802
365 14.2684
370 14.0764
375 10.8256
380 7.77657
385 6.75332
390 6.82027
395 6.29449
400 6.05259
405 6.02307
410 5.59728
415 5.77853
420 5.55911
425 5.32975
430 5.44333
435 5.47299
440 4.84658
445 4.77796
450 4.9575
455 4.87803
460 4.97771
465 4.90975
470 4.94219
475 4.43631
480 4.21753
485 4.52956
490 4.73203
495 3.97181
500 4.25604
505 3.97759
510 4.02271
515 3.94241
520 3.93448
525 4.01502
530 3.70206
535 3.78574
540 4.06234
545 3.94684
550 3.95039
555 4.05831
560 4.07723
565 4.19332
570 4.18597
575 4.51989
580 4.59067
585 4.93323
590 4.98638
595 5.25568
600 5.6199
Ex : 338
200 1.13276
205 1.06101
210 0.997295
215 1.08808
220 1.30559
225 1.32666
230 1.34978
235 1.40813
240 1.38752
245 1.47014
250 1.50244
255 1.54672
260 1.64866
265 1.79442
270 1.9578
275 2.08945
280 2.13657
285 2.42778
290 2.82914
295 3.23912
300 4.04534
305 5.07757
310 6.65039
315 9.6233
320 17.6144
325 650.253
330 9351.87
335 9999.9
340 2674.46
345 331.984
350 55.6246
355 18.8075
360 12.1869
365 11.6413
370 13.468
375 13.6079
380 11.0513
385 8.14773
390 7.06134
395 6.87752
400 6.63525
405 5.96837
410 5.95756
415 5.37403
420 5.40437
425 4.9146
430 4.73627
435 4.83113
440 4.96841
445 4.60724
450 4.72538
455 4.62834
460 4.72864
465 4.86506
470 4.55607
475 4.6104
480 4.40913
485 4.38555
490 4.21366
495 4.10368
500 4.02446
505 3.94485
510 3.80443
515 3.61504
520 3.89738
525 3.74447
530 3.80722
535 3.55117
540 3.77607
545 3.90011
550 3.4014
555 3.64276
560 3.78461
565 3.576
570 3.5589
575 3.89599
580 3.74461
585 4.04908
590 3.95843
595 4.35418
600 3.70925
Ex : 343
200 1.24767
205 1.1658
210 1.0755
215 1.16379
220 1.19863
225 1.32536
230 1.24802
235 1.34111
240 1.498
245 1.33471
250 1.35971
255 1.46976
260 1.53922
265 1.43554
270 1.74587
275 1.74798
280 1.77289
285 2.0911
290 2.45392
295 2.76448
300 3.27414
305 4.09462
310 5.0843
315 6.64544
320 10.0731
325 17.785
330 636.439
335 9688.29
340 9999.9
345 2747.75
350 340.14
355 55.9111
360 18.4536
365 11.7613
370 10.8218
375 12.0983
380 13.0388
385 11.6129
390 9.16843
395 7.04058
400 6.55648
405 5.8072
410 5.88744
415 5.62632
420 5.46805
425 5.09066
430 4.88435
435 4.84203
440 4.84084
445 4.90441
450 4.98879
455 4.6428
460 4.64868
465 4.8481
470 4.38992
475 4.42311
480 4.16745
485 4.09793
490 3.86676
495 3.97091
500 3.71324
505 3.68678
510 3.8508
515 3.86363
520 3.63502
525 3.34169
530 3.41474
535 3.33631
540 3.43405
545 3.42531
550 3.45931
555 3.41801
560 3.40502
565 3.3704
570 3.29469
575 3.38278
580 3.25107
585 3.44418
590 3.3814
595 3.56189
600 2.9139
Ex : 348
200 1.0694
205 1.01183
210 1.11364
215 1.09885
220 1.09947
225 1.09861
230 1.03833
235 1.16793
240 1.22857
245 1.30878
250 1.23572
255 1.2537
260 1.40818
265 1.591
270 1.59181
275 1.58224
280 1.87983
285 2.12601
290 2.25892
295 2.55365
300 2.72077
305 3.43305
310 4.00347
315 5.31108
320 6.9682
325 10.2733
330 17.6198
335 605.754
340 9577.75
345 9999.9
350 3082.31
355 379.99
360 60.312
365 19.3752
370 11.8285
375 10.3437
380 10.885
385 12.3716
390 11.8296
395 9.69217
400 7.04312
405 6.30862
410 5.96799
415 5.39105
420 5.43201
425 5.40459
430 5.04479
435 4.7602
440 4.72005
445 4.58094
450 4.70687
455 4.52831
460 4.39876
465 4.58046
470 4.48448
475 4.19248
480 4.15638
485 4.03313
490 4.02226
495 3.73362
500 3.5707
505 3.3752
510 3.4965
515 3.25896
520 2.98392
525 3.26756
530 3.36079
535 3.09612
540 2.93826
545 2.95401
550 3.1179
555 3.13784
560 3.1774
565 3.14359
570 2.97672
575 3.17482
580 3.02279
585 3.05782
590 3.11203
595 3.1965
600 1.51365
Ex : 353
200 0.982227
205 1.14594
210 0.96417
215 0.9853
220 1.18398
225 1.08132
230 1.10321
235 1.21846
240 1.10569
245 1.09161
250 1.29335
255 1.39393
260 1.3894
265 1.44234
270 1.53438
275 1.66502
280 1.64583
285 1.84573
290 1.94683
295 2.11684
300 2.31751
305 2.78181
310 3.55325
315 4.42469
320 5.21366
325 7.05337
330 11.0428
335 18.4687
340 642.793
345 9999.9
350 9999.9
355 3000.21
360 369.607
365 59.3189
370 19.2267
375 12.0701
380 10.3084
385 9.95578
390 11.945
395 12.5512
400 10.1936
405 7.70545
410 6.23914
415 5.98656
420 5.67875
425 5.37047
430 4.99852
435 4.74024
440 4.64937
445 4.70252
450 4.72936
455 4.69756
460 4.50575
465 4.53108
470 4.59846
475 4.14177
480 4.056
485 4.11559
490 4.02368
495 3.87431
500 3.42032
505 3.43469
510 3.423
515 3.24817
520 3.15528
525 3.08311
530 3.16338
535 3.12075
540 3.02216
545 2.87516
550 2.96951
555 3.09013
560 2.90112
565 3.00783
570 2.86049
575 2.64602
580 2.52957
585 2.59675
590 2.75566
595 2.88302
600 3.08249
Ex : 358
200 0.912519
205 0.986831
210 0.869703
215 0.926134
220 1.00049
225 0.975056
230 1.11215
235 1.13159
240 1.11969
245 1.03562
250 1.13482
255 1.25345
260 1.1465
265 1.21554
270 1.33897
275 1.42933
280 1.63266
285 1.69722
290 1.91935
295 1.90929
300 2.07219
305 2.53126
310 2.84824
315 3.26512
320 4.01346
325 5.29861
330 7.16379
335 10.5371
340 18.4299
345 629.407
350 9999.9
355 9999.9
360 3093.2
365 380.07
370 60.5693
375 19.3348
380 11.8418
385 10.2298
390 9.55079
395 11.3383
400 11.8653
405 10.572
410 7.96046
415 6.38639
420 5.74729
425 5.31628
430 5.03509
435 4.95354
440 4.83372
445 4.99291
450 4.76924
455 4.65371
460 4.48535
465 4.50152
470 4.27143
475 3.82659
480 4.06413
485 3.89459
490 3.69968
495 3.50109
500 3.58835
505 3.43019
510 3.27734
515 3.566
520 3.01102
525 2.87302
530 2.9851
535 2.76455
540 2.72838
545 2.57437
550 2.63229
555 2.59724
560 2.63798
565 2.71178
570 2.58758
575 2.51361
580 2.57166
585 2.5778
590 2.24787
595 2.37966
600 2.40369
Ex : 363
200 0.794802
205 0.839792
210 0.8745
215 0.900492
220 0.907648
225 0.885172
230 0.893972
235 1.003
240 0.989378
245 0.937823
250 0.963421
255 1.18007
260 1.19218
265 0.996241
270 1.29936
275 1.38512
280 1.46694
285 1.5062
290 1.61009
295 1.67969
300 1.85395
305 2.12129
310 2.52259
315 2.89489
320 3.41262
325 3.97334
330 5.21573
335 7.30956
340 10.5586
345 18.5285
350 586.855
355 9887.9
360 9999.9
365 3234.95
370 396.823
375 62.7219
380 19.3589
385 12.4135
390 9.99601
395 8.83319
400 10.3217
405 11.4935
410 10.5378
415 8.23938
420 6.20541
425 5.58323
430 5.39862
435 4.81375
440 4.75377
445 4.58607
450 4.69356
455 4.43847
460 4.32448
465 4.35588
470 3.98378
475 4.07434
480 3.9348
485 3.81188
490 3.51735
495 3.45338
500 3.27248
505 3.10702
510 3.13791
515 3.01926
520 2.78393
525 2.71632
530 2.69376
535 2.48717
540 2.63576
545 2.52751
550 2.50451
555 2.4181
560 2.40873
565 2.40893
570 2.46193
575 2.26287
580 2.30947
585 2.11399
590 2.21618
595 2.14302
600 3.12057
Ex : 368
200 0.801521
205 0.927549
210 0.825479
215 0.889907
220 0.815562
225 0.94117
230 0.941859
235 0.796258
240 0.893251
245 1.01239
250 0.940038
255 0.923713
260 0.982908
265 1.11578
270 1.1328
275 1.21623
280 1.38235
285 1.40163
290 1.52992
295 1.62194
300 1.65991
305 2.02094
310 2.26515
315 2.44475
320 2.9104
325 3.47578
330 4.3283
335 5.46131
340 7.22976
345 10.9263
350 18.3029
355 494.236
360 9884.95
365 9999.9
370 3550.49
375 435.319
380 66.9127
385 20.1514
390 12.6714
395 10.0963
400 8.24914
405 9.48281
410 11.0031
415 10.7726
420 8.89952
425 6.50857
430 5.634
435 5.29339
440 4.6868
445 4.8129
450 4.3871
455 4.51875
460 4.72725
465 4.39586
470 4.29862
475 3.87095
480 3.85138
485 3.66115
490 3.4659
495 3.43156
500 3.25775
505 3.00315
510 3.00909
515 3.05927
520 2.83329
525 2.66919
530 2.58545
535 2.47389
540 2.51956
545 2.41328
550 2.48403
555 2.31402
560 2.29344
565 2.42315
570 2.37341
575 2.23244
580 2.00982
585 1.93797
590 1.85165
595 1.95791
600 2.91752
Ex : 373
200 0.894073
205 0.918888
210 0.823883
215 0.831506
220 0.926594
225 0.939891
230 0.923833
235 0.92513
240 0.939587
245 0.971536
250 0.996166
255 1.00971
260 1.04173
265 1.09463
270 1.23571
275 1.20374
280 1.25266
285 1.24503
290 1.43964
295 1.50536
300 1.67498
305 1.74163
310 2.03428
315 2.27585
320 2.64448
325 3.09568
330 3.67926
335 4.55309
340 5.56417
345 7.45107
350 11.3205
355 18.7156
360 614.197
365 9999.9
370 9999.9
375 3535.86
380 432.421
385 67.2761
390 20.5413
395 12.5953
400 9.73862
405 7.89726
410 8.71909
415 10.22
420 10.3983
425 9.0437
430 6.66352
435 5.51102
440 5.02369
445 5.10456
450 4.74268
455 4.58191
460 4.45289
465 4.4713
470 4.1025
475 3.92708
480 3.8195
485 3.55977
490 3.60344
495 3.44383
500 3.06251
505 2.97326
510 3.03952
515 2.78502
520 2.69353
525 2.55533
530 2.52492
535 2.62858
540 2.41661
545 2.4522
550 2.19599
555 2.38021
560 2.13201
565 2.14
570 2.06446
575 2.05797
580 1.83962
585 1.88436
590 1.8119
595 1.89374
600 1.96002
Ex : 378
200 0.925026
205 0.871854
210 0.848537
215 0.814303
220 0.856328
225 0.801214
230 0.883294
235 0.909456
240 0.813176
245 0.935689
250 0.933099
255 0.913832
260 1.02055
265 1.03851
270 1.10332
275 1.15562
280 1.24948
285 1.15938
290 1.43548
295 1.43768
300 1.41395
305 1.58755
310 1.89801
315 2.10713
320 2.32422
325 2.69893
330 3.08844
335 3.55633
340 4.45264
345 5.75332
350 7.71713
355 11.224
360 18.7013
365 594.258
370 9999.9
375 9999.9
380 3604.6
385 441.419
390 68.8672
395 20.404
400 12.6209
405 9.52836
410 7.63853
415 7.89055
420 9.37355
425 9.63884
430 9.59598
435 7.34968
440 5.56666
445 5.39415
450 4.87793
455 4.69528
460 4.63399
465 4.54641
470 4.24319
475 3.80531
480 3.93045
485 3.68334
490 3.3746
495 3.17152
500 3.11816
505 2.93748
510 3.00371
515 2.77006
520 2.493
525 2.42882
530 2.37576
535 2.44458
540 2.3621
545 2.13991
550 2.07044
555 2.07196
560 2.17623
565 2.0096
570 1.79502
575 1.82378
580 1.85664
585 1.69958
590 1.69414
595 1.7145
600 1.96455
Ex : 383
200 0.742539
205 0.711713
210 0.790645
215 0.916698
220 0.810613
225 0.804805
230 0.844857
235 0.92807
240 0.928853
245 0.824302
250 0.931854
255 0.965094
260 1.02597
265 0.952914
270 1.12878
275 1.04525
280 1.13315
285 1.29676
290 1.33929
295 1.43554
300 1.40584
305 1.58622
310 1.73877
315 1.79676
320 2.07168
325 2.36879
330 2.5351
335 3.12351
340 3.69615
345 4.58759
350 5.68347
355 7.69735
360 11.556
365 19.1599
370 561.816
375 9999.9
380 9999.9
385 3795.08
390 464.557
395 71.4366
400 21.1509
405 12.6404
410 9.61295
415 7.82328
420 7.24676
425 8.64379
430 9.65177
435 9.24128
440 7.52804
445 5.76549
450 5.14141
455 4.89027
460 4.61461
465 4.49246
470 4.00909
475 4.08074
480 3.83639
485 3.61387
490 3.59205
495 3.30214
500 3.27997
505 2.9564
510 2.81422
515 2.79664
520 2.53639
525 2.48528
530 2.40801
535 2.23558
540 2.31
545 2.12522
550 2.12446
555 2.01192
560 1.96852
565 2.07626
570 1.87298
575 1.77432
580 1.6721
585 1.57345
590 1.59286
595 1.48164
600 1.67093
Ex : 388
200 0.744247
205 0.772008
210 0.826257
215 0.878077
220 0.839174
225 0.920297
230 0.889999
235 0.873784
240 0.846495
245 0.945474
250 0.962649
255 0.962727
260 0.942623
265 0.995307
270 0.958779
275 1.0501
280 1.03023
285 1.19813
290 1.1776
295 1.31066
300 1.36486
305 1.52604
310 1.67086
315 1.85371
320 1.89773
325 2.25292
330 2.4005
335 2.79719
340 3.25256
345 3.96746
350 4.62488
355 5.93557
360 7.78493
365 11.8322
370 19.8456
375 609.324
380 9999.9
385 9999.9
390 3883.82
395 473.823
400 72.1929
405 20.9286
410 12.4278
415 9.59182
420 7.64908
425 6.81959
430 8.22652
435 9.22836
440 9.13707
445 8.41571
450 6.36982
455 5.13006
460 4.96655
465 4.94601
470 4.59913
475 4.12729
480 3.8644
485 3.65592
490 3.37195
495 3.29779
500 3.18241
505 2.89988
510 2.78697
515 2.73073
520 2.64554
525 2.46986
530 2.36253
535 2.30886
540 2.22941
545 2.19595
550 2.14889
555 2.03626
560 1.97575
565 1.93051
570 1.8309
575 1.68824
580 1.62794
585 1.64975
590 1.4948
595 1.40011
600 1.37853
Ex : 393
200 0.734097
205 0.752471
210 0.766988
215 0.774797
220 0.830272
225 0.779755
230 0.867997
235 0.91759
240 0.914951
245 0.882231
250 0.932128
255 1.02808
260 0.936192
265 1.04135
270 0.99027
275 1.14496
280 1.19878
285 1.12167
290 1.24183
295 1.3197
300 1.43074
305 1.43456
310 1.45489
315 1.69566
320 1.80422
325 2.08623
330 2.24354
335 2.57787
340 2.72902
345 3.27664
350 4.1946
355 4.87295
360 5.91141
365 8.4555
370 11.9971
375 20.1297
380 577.371
385 9999.9
390 9999.9
395 4105.02
400 500.342
405 75.6425
410 21.1984
415 12.3941
420 9.35984
425 7.4544
430 6.5269
435 7.53216
440 8.97219
445 9.20845
450 8.49057
455 6.74025
460 5.32685
465 4.85643
470 4.62386
475 4.17239
480 4.01906
485 3.72026
490 3.67372
495 3.40534
500 3.0335
505 3.04217
510 2.93066
515 2.77076
520 2.61149
525 2.40268
530 2.35362
535 2.3556
540 2.4287
545 2.19
550 2.17696
555 1.98166
560 1.90712
565 1.78725
570 1.77947
575 1.78942
580 1.65237
585 1.5024
590 1.54433
595 1.39498
600 1.01636
Ex : 398
200 0.773856
205 0.784145
210 0.780038
215 0.895579
220 0.839852
225 0.826859
230 0.861537
235 0.928915
240 0.794805
245 0.949561
250 0.956389
255 0.927004
260 1.00076
265 1.06605
270 1.11732
275 1.11145
280 1.08942
285 1.18314
290 1.20268
295 1.3075
300 1.19738
305 1.44878
310 1.51489
315 1.63729
320 1.82482
325 1.85518
330 2.08824
335 2.31109
340 2.54229
345 2.88338
350 3.24695
355 3.99347
360 4.77423
365 6.24169
370 8.43808
375 12.3514
380 20.64
385 616.492
390 9999.9
395 9999.9
400 4213.73
405 512.539
410 76.6749
415 21.4558
420 12.5926
425 9.30989
430 7.25874
435 6.55005
440 6.86628
445 8.42378
450 8.54792
455 8.3686
460 7.28927
465 5.63438
470 4.84107
475 4.22343
480 4.09242
485 3.74258
490 3.73771
495 3.28075
500 3.30322
505 2.86996
510 3.07683
515 2.67049
520 2.74278
525 2.39203
530 2.3489
535 2.29579
540 2.21233
545 2.2582
550 2.17234
555 2.07862
560 1.94081
565 1.7935
570 1.7322
575 1.61516
580 1.50033
585 1.55466
590 1.4381
595 1.42115
600 1.37442
Ex : 403
200 0.805482
205 0.74014
210 0.673663
215 0.746885
220 0.774511
225 0.829091
230 0.863163
235 0.930465
240 0.864571
245 0.918896
250 0.893967
255 0.882415
260 0.974298
265 0.973796
270 0.950472
275 1.02434
280 0.974521
285 1.01844
290 1.22718
295 1.15146
300 1.28692
305 1.43051
310 1.45597
315 1.53382
320 1.82558
325 1.90941
330 1.97524
335 2.16171
340 2.45774
345 2.62724
350 3.03387
355 3.51742
360 3.99324
365 5.07446
370 6.43788
375 8.56594
380 12.7307
385 21.7168
390 671.01
395 9999.9
400 9999.9
405 4289.31
410 521.241
415 77.9958
420 21.6773
425 12.5384
430 9.46689
435 7.21991
440 6.56553
445 6.54543
450 7.98744
455 8.64705
460 8.52937
465 7.66607
470 5.65123
475 4.62355
480 4.30664
485 3.95479
490 3.69985
495 3.4868
500 3.30482
505 3.0633
510 3.00342
515 2.875
520 2.60484
525 2.57455
530 2.33721
535 2.30229
540 2.19652
545 2.25617
550 2.21094
555 2.05475
560 1.92937
565 1.84699
570 1.70402
575 1.77973
580 1.55815
585 1.5434
590 1.42753
595 1.33811
600 1.19472
Ex : 408
200 0.724332
205 0.796196
210 0.750326
215 0.767626
220 0.817575
225 0.795012
230 0.726576
235 0.813839
240 0.780487
245 0.977532
250 0.907909
255 0.84943
260 0.906248
265 0.90539
270 0.954768
275 1.04826
280 1.00573
285 0.98857
290 1.1067
295 1.23353
300 1.2688
305 1.3248
310 1.35842
315 1.49524
320 1.69263
325 1.75962
330 1.74409
335 2.03562
340 2.23266
345 2.55268
350 2.74591
355 3.14154
360 3.50469
365 4.14851
370 5.40375
375 6.81777
380 9.02417
385 13.3227
390 22.5956
395 674.407
400 9999.9
405 9999.9
410 4218.46
415 513.456
420 76.7038
425 21.403
430 12.4489
435 9.53216
440 7.41885
445 6.72568
450 6.30524
455 7.47979
460 8.46034
465 8.39346
470 7.55087
475 5.91468
480 4.67752
485 3.97113
490 3.83019
495 3.47641
500 3.40133
505 3.18398
510 3.00799
515 2.92115
520 2.65377
525 2.59563
530 2.56174
535 2.31242
540 2.33533
545 2.30817
550 2.11716
555 2.03548
560 2.00761
565 1.85819
570 1.72943
575 1.69789
580 1.57537
585 1.4686
590 1.43568
595 1.38691
600 1.81549
Ex : 413
200 0.655488
205 0.710981
210 0.712397
215 0.788948
220 0.807948
225 0.84503
230 0.851977
235 0.868989
240 0.850891
245 0.758529
250 0.901279
255 0.811641
260 0.856356
265 0.86929
270 0.905331
275 0.868631
280 0.994271
285 0.991045
290 1.16048
295 1.19497
300 1.14496
305 1.2709
310 1.32052
315 1.59692
320 1.5968
325 1.62117
330 1.82266
335 1.85863
340 1.8538
345 2.31562
350 2.59358
355 2.79898
360 3.14389
365 3.7735
370 4.27998
375 5.30545
380 6.98274
385 9.36227
390 14.2177
395 23.4699
400 760.978
405 9999.9
410 9999.9
415 4135.45
420 501.932
425 75.1844
430 20.9361
435 12.2456
440 9.54762
445 7.47763
450 6.5548
455 6.37286
460 7.10167
465 8.29148
470 8.05059
475 7.44068
480 6.26094
485 4.46377
490 3.91715
495 3.7478
500 3.52967
505 3.33709
510 2.96927
515 3.07337
520 2.62347
525 2.54947
530 2.50482
535 2.21389
540 2.17247
545 2.29762
550 2.13044
555 2.0788
560 1.92875
565 1.97929
570 1.76572
575 1.53151
580 1.59689
585 1.4613
590 1.4093
595 1.37689
600 1.04047
Ex : 418
200 0.618004
205 0.748229
210 0.738222
215 0.844466
220 0.749251
225 0.791791
230 0.792409
235 0.742448
240 0.873407
245 0.771836
250 0.881486
255 0.893451
260 0.93125
265 0.913103
270 0.986966
275 0.900488
280 0.975057
285 1.03092
290 1.08233
295 1.09778
300 1.28962
305 1.20726
310 1.26102
315 1.30514
320 1.38506
325 1.5343
330 1.7542
335 1.81024
340 1.96329
345 2.06287
350 2.16516
355 2.43188
360 2.88354
365 3.25171
370 3.85695
375 4.27796
380 5.35102
385 7.28709
390 9.68468
395 14.4269
400 23.4391
405 712.985
410 9999.9
415 9999.9
420 4326.77
425 524.588
430 78.1514
435 21.6127
440 12.6041
445 10.0095
450 7.67243
455 6.656
460 6.19864
465 6.47209
470 7.40256
475 7.51119
480 7.02078
485 6.30651
490 4.83342
495 3.9025
500 3.36739
505 3.15508
510 3.03486
515 2.8968
520 2.75645
525 2.73948
530 2.49711
535 2.33431
540 2.28771
545 2.05045
550 2.09442
555 2.00321
560 2.10299
565 1.86469
570 1.76932
575 1.71614
580 1.50684
585 1.54036
590 1.42933
595 1.29168
600 1.16935
Ex : 423
200 0.789288
205 0.689489
210 0.725378
215 0.729976
220 0.815869
225 0.74156
230 0.763264
235 0.81604
240 0.798465
245 0.827131
250 0.800458
255 0.844856
260 0.881209
265 0.873028
270 0.995003
275 1.0277
280 0.957327
285 1.00282
290 1.03479
295 1.08429
300 1.19409
305 1.21146
310 1.38991
315 1.36614
320 1.48025
325 1.57235
330 1.65252
335 1.69464
340 1.93835
345 2.03227
350 2.07751
355 2.3309
360 2.50873
365 2.78128
370 3.27833
375 3.97253
380 4.63952
385 5.7788
390 7.41665
395 9.91859
400 14.7403
405 24.3119
410 751.022
415 9999.9
420 9999.9
425 4192.15
430 509.861
435 76.7948
440 21.5962
445 12.5594
450 9.80135
455 7.59739
460 6.62571
465 6.70666
470 6.30239
475 7.04238
480 7.20843
485 6.72782
490 6.54078
495 5.08297
500 3.95465
505 3.46531
510 3.19262
515 3.03894
520 2.75706
525 2.71211
530 2.50239
535 2.50828
540 2.33376
545 2.27719
550 2.17919
555 2.06218
560 2.02861
565 1.81946
570 1.71089
575 1.67466
580 1.54099
585 1.49947
590 1.4128
595 1.38611
600 0.703828
Ex : 428
200 0.72321
205 0.709095
210 0.708999
215 0.697214
220 0.872816
225 0.733324
230 0.762511
235 0.772246
240 0.827465
245 0.819601
250 0.861154
255 0.861439
260 0.948902
265 0.973389
270 0.852874
275 0.9311
280 1.01679
285 0.993575
290 1.00021
295 1.02415
300 1.13014
305 1.19245
310 1.18375
315 1.28577
320 1.34348
325 1.44968
330 1.50236
335 1.62765
340 1.77229
345 1.95635
350 2.02002
355 2.23172
360 2.44126
365 2.7418
370 3.04377
375 3.47665
380 4.1443
385 4.89319
390 6.04977
395 7.56863
400 10.4891
405 15.1483
410 25.2101
415 825.447
420 9999.9
425 9999.9
430 4417.09
435 535.314
440 80.0565
445 22.7331
450 13.2464
455 10.2445
460 8.06234
465 6.99645
470 6.20715
475 5.80282
480 6.75402
485 7.32189
490 6.87399
495 5.96839
500 5.34754
505 4.0942
510 3.33407
515 3.06683
520 3.04772
525 2.77258
530 2.7258
535 2.357
540 2.27018
545 2.263
550 2.10706
555 2.01588
560 2.06191
565 1.98851
570 1.79797
575 1.6722
580 1.52325
585 1.4517
590 1.31464
595 1.29082
600 1.09234
Ex : 433
200 0.783022
205 0.677491
210 0.694949
215 0.726203
220 0.766911
225 0.778069
230 0.734943
235 0.703768
240 0.774648
245 0.792869
250 0.828009
255 0.847888
260 0.836479
265 0.868948
270 0.939995
275 0.932507
280 0.965159
285 1.07385
290 1.10244
295 1.00621
300 1.23978
305 1.15443
310 1.2625
315 1.27926
320 1.39831
325 1.38583
330 1.43897
335 1.42544
340 1.67508
345 1.82748
350 2.07048
355 2.18639
360 2.28064
365 2.52178
370 2.7123
375 3.18495
380 3.58746
385 4.13278
390 5.05841
395 6.14179
400 7.88154
405 10.7443
410 15.7048
415 25.8329
420 901.5
425 9999.9
430 9999.9
435 4223.34
440 512.564
445 77.8497
450 22.7474
455 13.301
460 10.2645
465 8.30537
470 6.89218
475 5.97426
480 5.6475
485 6.06307
490 6.93141
495 6.41731
500 6.07745
505 5.45712
510 4.1888
515 3.20184
520 3.03781
525 2.88433
530 2.79056
535 2.51563
540 2.34333
545 2.28546
550 2.06939
555 2.25305
560 2.07912
565 1.85863
570 1.78291
575 1.71307
580 1.45462
585 1.35034
590 1.39363
595 1.28171
600 1.38554
Ex : 438
200 0.786473
205 0.740548
210 0.759637
215 0.8297
220 0.809746
225 0.784275
230 0.712165
235 0.808116
240 0.835799
245 0.865108
250 0.844801
255 0.937649
260 0.929472
265 0.815584
270 0.948509
275 0.97307
280 1.03997
285 0.97242
290 1.08642
295 1.07478
300 1.15506
305 1.22625
310 1.28137
315 1.28815
320 1.32239
325 1.32243
330 1.53267
335 1.44666
340 1.73172
345 1.81871
350 1.93461
355 1.99208
360 2.25844
365 2.48092
370 2.64143
375 2.86345
380 3.08746
385 3.48086
390 4.37671
395 5.17268
400 6.22108
405 8.07611
410 10.9253
415 16.1407
420 25.1555
425 867.589
430 9999.9
435 9999.9
440 4387.22
445 532.901
450 80.7472
455 22.9353
460 13.8877
465 11.0342
470 8.061
475 6.68564
480 5.91338
485 5.61286
490 5.73168
495 6.32075
500 6.78397
505 5.70761
510 5.21945
515 4.44882
520 3.46635
525 3.0785
530 2.84436
535 2.69004
540 2.5488
545 2.52314
550 2.27577
555 2.08173
560 1.93126
565 1.94735
570 1.70067
575 1.61428
580 1.55491
585 1.49839
590 1.31444
595 1.32522
600 1.49134
Ex : 443
200 0.750504
205 0.72223
210 0.759044
215 0.738236
220 0.724395
225 0.759976
230 0.762268
235 0.825839
240 0.865867
245 0.822665
250 0.856426
255 0.868219
260 0.88181
265 0.926891
270 0.868538
275 0.89205
280 0.966252
285 0.98348
290 1.02906
295 1.07909
300 1.13249
305 1.17516
310 1.07098
315 1.23193
320 1.28819
325 1.37618
330 1.49749
335 1.49803
340 1.67337
345 1.73251
350 1.91723
355 1.97394
360 2.12115
365 2.25405
370 2.56749
375 2.77157
380 3.03994
385 3.15031
390 3.83749
395 4.47477
400 5.39149
405 6.50036
410 8.37219
415 10.9859
420 16.352
425 26.5042
430 955.501
435 9999.9
440 9999.9
445 4351.48
450 529.174
455 80.5976
460 23.7837
465 14.7373
470 10.92
475 7.77489
480 6.43543
485 5.90256
490 5.52023
495 5.3706
500 6.05349
505 6.15714
510 5.51599
515 5.34699
520 4.64728
525 3.82328
530 3.01427
535 2.81013
540 2.54377
545 2.43502
550 2.26521
555 2.19405
560 2.06966
565 2.06734
570 1.71931
575 1.74787
580 1.53216
585 1.46042
590 1.41306
595 1.37697
600 1.62613
Ex : 448
200 0.716774
205 0.74206
210 0.789897
215 0.743811
220 0.807656
225 0.802722
230 0.771384
235 0.791435
240 0.799061
245 0.927563
250 0.854913
255 0.784252
260 0.850215
265 0.998265
270 0.900707
275 0.860605
280 0.900811
285 1.09718
290 1.13488
295 1.05585
300 1.18344
305 1.16424
310 1.14255
315 1.29911
320 1.33291
325 1.3225
330 1.38278
335 1.5124
340 1.59916
345 1.7673
350 1.7402
355 1.87542
360 2.18114
365 2.21201
370 2.35249
375 2.74593
380 2.84203
385 3.30413
390 3.67513
395 3.99109
400 4.57981
405 5.70135
410 6.57199
415 8.50695
420 11.6107
425 16.4345
430 26.1543
435 994.407
440 9999.9
445 9999.9
450 4415.91
455 536.466
460 82.4551
465 24.8753
470 14.4866
475 10.0228
480 7.59564
485 6.32379
490 5.88435
495 5.65817
500 5.1999
505 5.24991
510 6.01615
515 5.67843
520 5.1204
525 4.68305
530 3.64275
535 3.04984
540 2.63342
545 2.54907
550 2.36345
555 2.3121
560 2.23457
565 2.00577
570 1.87301
575 1.67957
580 1.61197
585 1.58638
590 1.36157
595 1.31828
600 0.758342
Ex : 453
200 0.725212
205 0.752193
210 0.723949
215 0.797144
220 0.826332
225 0.788184
230 0.737512
235 0.89877
240 0.897592
245 0.83669
250 0.767344
255 0.845639
260 0.898634
265 0.940391
270 0.908304
275 0.970657
280 0.937013
285 1.05386
290 1.13349
295 1.15159
300 1.1203
305 1.12077
310 1.27011
315 1.27938
320 1.31319
325 1.32997
330 1.52306
335 1.49481
340 1.5905
345 1.5559
350 1.57666
355 1.91553
360 1.93823
365 2.15493
370 2.29471
375 2.4682
380 2.68626
385 2.83082
390 3.20078
395 3.57993
400 4.21084
405 4.54746
410 5.28667
415 6.58492
420 8.25466
425 11.0742
430 15.8908
435 26.0972
440 1045.88
445 9999.9
450 9999.9
455 4267.25
460 520.383
465 80.9007
470 23.7915
475 13.4781
480 9.90765
485 7.39587
490 6.34024
495 5.59886
500 5.48051
505 5.18203
510 5.17526
515 5.81168
520 5.46128
525 4.65462
530 4.51577
535 3.82478
540 3.01014
545 2.69143
550 2.42014
555 2.35144
560 2.20724
565 2.07439
570 1.82344
575 1.86027
580 1.68715
585 1.55564
590 1.35656
595 1.41071
600 0.920828
Ex : 458
200 0.844704
205 0.812527
210 0.794078
215 0.836097
220 0.924381
225 0.846633
230 0.817899
235 0.80898
240 0.855982
245 0.823453
250 0.889758
255 0.833366
260 0.884614
265 0.932789
270 0.91202
275 0.974554
280 1.01458
285 1.03633
290 1.07992
295 1.15283
300 1.24049
305 1.24203
310 1.31459
315 1.27553
320 1.18128
325 1.29492
330 1.42458
335 1.42946
340 1.47751
345 1.6823
350 1.68439
355 1.78187
360 1.86657
365 2.18882
370 2.3356
375 2.46838
380 2.66771
385 3.00112
390 3.25807
395 3.50242
400 3.80653
405 4.29674
410 5.09794
415 5.57187
420 6.72317
425 8.392
430 11.5908
435 16.9318
440 27.7245
445 1142.92
450 9999.9
455 9999.9
460 4581.15
465 558.916
470 85.2017
475 23.5852
480 13.7344
485 9.84431
490 7.57148
495 6.33804
500 5.6104
505 5.24742
510 5.06895
515 4.92414
520 5.39272
525 5.38631
530 4.82094
535 4.4608
540 4.07657
545 3.22375
550 2.8366
555 2.40328
560 2.26849
565 2.11817
570 2.0414
575 1.92604
580 1.62227
585 1.63427
590 1.54956
595 1.45737
600 1.01969
Ex : 463
200 0.744697
205 0.802541
210 0.807181
215 0.830502
220 0.924236
225 0.862975
230 0.907192
235 0.88406
240 0.909517
245 0.943272
250 0.865505
255 0.896075
260 0.996976
265 0.872118
270 0.903908
275 0.956814
280 0.980023
285 1.02973
290 0.979121
295 1.12
300 1.27741
305 1.29427
310 1.29892
315 1.29379
320 1.36684
325 1.3355
330 1.47087
335 1.50302
340 1.52637
345 1.64686
350 1.73432
355 1.74938
360 1.97234
365 2.10503
370 2.16459
375 2.27248
380 2.4889
385 2.6601
390 2.94493
395 3.25068
400 3.4227
405 3.89469
410 4.19182
415 4.7574
420 5.63472
425 6.84182
430 8.48438
435 11.5935
440 16.758
445 28.1452
450 1120.92
455 9999.9
460 9999.9
465 4790.06
470 581.879
475 86.6087
480 23.9631
485 13.5162
490 9.75295
495 7.43975
500 6.09317
505 5.60081
510 5.30045
515 4.93542
520 4.69958
525 4.87405
530 5.12735
535 4.6254
540 4.48378
545 4.14246
550 3.55246
555 2.94685
560 2.49409
565 2.18623
570 2.1337
575 2.04434
580 1.8454
585 1.66731
590 1.53548
595 1.48272
600 0.98732
Ex : 468
200 0.843615
205 0.784371
210 0.846888
215 0.886459
220 0.898964
225 0.93372
230 1.07922
235 0.977439
240 0.945743
245 0.906182
250 0.95277
255 0.86436
260 0.950869
265 0.859838
270 0.925255
275 0.979018
280 1.06042
285 1.11498
290 1.00801
295 0.965751
300 1.16596
305 1.21955
310 1.33499
315 1.24532
320 1.2487
325 1.38925
330 1.38413
335 1.35205
340 1.60656
345 1.71452
350 1.69273
355 1.71415
360 1.81103
365 1.99148
370 2.21713
375 2.3143
380 2.43331
385 2.62345
390 2.79753
395 3.21592
400 3.27505
405 3.47107
410 3.73602
415 4.22946
420 4.66433
425 5.42562
430 6.50022
435 8.21795
440 11.3685
445 16.8411
450 27.2709
455 1208.33
460 9999.9
465 9999.9
470 4945.15
475 595.632
480 87.1128
485 23.1504
490 13.0457
495 9.35752
500 7.04428
505 5.74499
510 5.31911
515 5.24982
520 4.93069
525 4.623
530 4.47359
535 4.80425
540 4.67298
545 4.17718
550 3.91716
555 3.54095
560 2.85478
565 2.35559
570 2.19302
575 2.06131
580 1.89384
585 1.76122
590 1.62359
595 1.58672
600 1.26271
Ex : 473
200 0.88351
205 0.87993
210 0.957913
215 0.934945
220 0.910594
225 0.898744
230 1.22259
235 1.07783
240 0.908334
245 0.913638
250 0.966001
255 0.999123
260 0.980421
265 0.940784
270 0.942854
275 1.05971
280 1.03813
285 0.996335
290 1.08612
295 1.18056
300 1.1307
305 1.3136
310 1.19513
315 1.24349
320 1.45111
325 1.45177
330 1.34273
335 1.43131
340 1.47544
345 1.61388
350 1.72242
355 1.71048
360 1.97984
365 1.9913
370 2.13406
375 2.20075
380 2.42915
385 2.50738
390 2.66834
395 2.98326
400 3.02027
405 3.26619
410 3.567
415 3.86978
420 4.36918
425 4.91797
430 5.7139
435 6.78959
440 8.84027
445 12.1371
450 17.49
455 29.4329
460 1296.21
465 9999.9
470 9999.9
475 4685.37
480 566.454
485 83.595
490 22.9267
495 12.8708
500 9.38739
505 6.98946
510 5.94752
515 5.39697
520 5.34696
525 4.83152
530 4.47216
535 4.37875
540 4.66928
545 4.64999
550 4.15438
555 3.92839
560 3.57563
565 2.97269
570 2.36205
575 2.12448
580 2.01196
585 1.82913
590 1.66126
595 1.61501
600 1.94708
Ex : 478
200 0.90931
205 0.877923
210 0.804568
215 0.954907
220 0.93806
225 0.982508
230 1.1703
235 1.58829
240 1.08566
245 1.06719
250 0.991048
255 1.02361
260 1.03638
265 0.998918
270 0.941839
275 1.07385
280 1.06923
285 1.00528
290 1.16245
295 1.0558
300 1.14043
305 1.2933
310 1.27558
315 1.32411
320 1.37626
325 1.51906
330 1.51514
335 1.60042
340 1.50435
345 1.66618
350 1.8283
355 1.77069
360 1.82311
365 1.99218
370 2.28078
375 2.24484
380 2.47636
385 2.46265
390 2.74349
395 2.92485
400 3.10294
405 3.44748
410 3.50944
415 3.83632
420 4.21064
425 4.69368
430 5.48405
435 6.0224
440 7.42735
445 9.76845
450 13.7986
455 20.0896
460 33.9765
465 1508.38
470 9999.9
475 9999.9
480 4815.33
485 582.984
490 87.8691
495 23.7454
500 13.6772
505 9.81098
510 7.23304
515 6.1716
520 5.422
525 5.28694
530 4.98809
535 4.54758
540 4.23315
545 4.35744
550 4.52563
555 4.00792
560 3.63876
565 3.58021
570 2.99809
575 2.56486
580 2.17467
585 2.03385
590 1.80402
595 1.63107
600 1.71559
Ex : 483
200 0.88037
205 0.859995
210 0.946544
215 0.905876
220 0.917563
225 0.97669
230 1.03458
235 1.63637
240 1.30892
245 1.05486
250 0.920141
255 0.95272
260 1.03086
265 0.985394
270 0.98895
275 1.08136
280 1.09162
285 1.09638
290 1.06717
295 1.08552
300 1.25203
305 1.30119
310 1.36149
315 1.31375
320 1.25285
325 1.59458
330 1.4825
335 1.46963
340 1.63253
345 1.60691
350 1.72685
355 1.79752
360 1.88252
365 2.01655
370 2.04846
375 2.13191
380 2.32122
385 2.3429
390 2.51778
395 2.69257
400 3.0606
405 3.10108
410 3.48846
415 3.79272
420 4.00832
425 4.35215
430 4.80672
435 5.37577
440 6.34507
445 7.98142
450 10.3464
455 14.3962
460 21.3652
465 35.3844
470 1209.25
475 9999.9
480 9999.9
485 5083.76
490 614.786
495 90.2998
500 24.5642
505 13.4648
510 9.85789
515 7.45299
520 6.56918
525 5.51656
530 5.35972
535 4.87302
540 4.74023
545 4.34249
550 4.1213
555 4.57552
560 4.23041
565 3.66029
570 3.26506
575 2.96831
580 2.53771
585 2.11061
590 1.95108
595 1.76761
600 1.75131
Ex : 488
200 0.998117
205 0.972795
210 0.922308
215 0.896396
220 0.89595
225 1.0177
230 0.926272
235 1.31693
240 1.8856
245 1.10765
250 0.964513
255 0.963419
260 1.01524
265 1.04606
270 0.983163
275 0.960064
280 1.11256
285 1.11024
290 1.18851
295 1.1111
300 1.17712
305 1.28271
310 1.33791
315 1.2375
320 1.3799
325 1.52155
330 1.47751
335 1.60461
340 1.66969
345 1.72525
350 1.65617
355 1.73796
360 1.84347
365 1.96838
370 2.09183
375 2.10001
380 2.31452
385 2.49954
390 2.75839
395 2.85931
400 2.87304
405 3.03895
410 3.3109
415 3.64682
420 3.84203
425 4.07564
430 4.4936
435 4.99571
440 5.95797
445 7.02802
450 8.7593
455 11.2365
460 15.9397
465 23.8809
470 36.8097
475 1453.32
480 9999.9
485 9999.9
490 4876.86
495 591.486
500 88.4965
505 24.4083
510 14.1664
515 10.3323
520 7.59552
525 6.35926
530 5.46645
535 5.39001
540 4.87606
545 4.56766
550 4.24354
555 4.01504
560 3.91566
565 4.15287
570 3.67819
575 3.12938
580 2.69592
585 2.43935
590 2.05652
595 1.94579
600 1.72491
Ex : 493
200 0.925244
205 0.928814
210 0.951502
215 0.955654
220 1.04755
225 0.940315
230 1.00926
235 1.00905
240 2.06863
245 1.67448
250 0.971984
255 1.08379
260 0.974205
265 1.0055
270 1.05086
275 1.09899
280 1.09599
285 1.00709
290 1.12108
295 1.20092
300 1.13413
305 1.1501
310 1.27759
315 1.2454
320 1.43122
325 1.34277
330 1.50436
335 1.59249
340 1.49256
345 1.5686
350 1.69887
355 1.79019
360 1.73517
365 1.87149
370 1.99033
375 1.99735
380 2.24139
385 2.32917
390 2.52797
395 2.56078
400 2.7787
405 3.07053
410 3.4652
415 3.5339
420 3.8062
425 3.92252
430 4.23989
435 4.65163
440 5.28238
445 5.81914
450 6.9022
455 8.69603
460 11.6648
465 16.7877
470 23.3291
475 35.7565
480 1398.04
485 9999.9
490 9999.9
495 4967.8
500 600.808
505 89.2266
510 24.3327
515 13.8486
520 9.99049
525 7.33359
530 6.12367
535 5.76071
540 5.49747
545 5.23482
550 4.565
555 4.28836
560 4.00286
565 3.77984
570 3.8762
575 3.27744
580 2.90675
585 2.77546
590 2.32404
595 2.1125
600 1.99725
Ex : 498
200 0.83447
205 0.820021
210 0.843304
215 0.870154
220 0.947484
225 0.943012
230 0.946557
235 0.948766
240 1.66442
245 2.37991
250 1.20087
255 1.00813
260 1.07287
265 1.15306
270 1.12879
275 1.0532
280 1.12805
285 1.19588
290 1.18615
295 1.16751
300 1.11722
305 1.14554
310 1.21934
315 1.40204
320 1.31602
325 1.37076
330 1.41992
335 1.66193
340 1.63027
345 1.64298
350 1.83501
355 1.82974
360 1.83962
365 1.93434
370 2.02893
375 2.10933
380 2.19231
385 2.29449
390 2.4576
395 2.71879
400 2.84666
405 2.91671
410 3.21814
415 3.30079
420 3.4391
425 3.74027
430 4.21587
435 4.59773
440 4.84247
445 5.67204
450 6.42509
455 7.55696
460 9.69044
465 13.1525
470 17.2309
475 23.0003
480 37.3677
485 1637.14
490 9999.9
495 9999.9
500 4857.25
505 588.873
510 88.5437
515 25.3865
520 14.1035
525 10.2614
530 7.72388
535 6.4342
540 5.79558
545 5.4046
550 5.19531
555 4.73654
560 4.40769
565 3.98164
570 3.82141
575 3.46316
580 3.34607
585 2.72766
590 2.67555
595 2.32123
600 1.85732
Ex : 503
200 0.922914
205 0.941937
210 0.986398
215 0.926361
220 0.932163
225 0.899675
230 0.905591
235 0.938282
240 1.07529
245 2.41873
250 1.75196
255 1.04886
260 1.00306
265 1.12311
270 1.06869
275 1.05468
280 1.16547
285 1.12529
290 1.27856
295 1.16692
300 1.2501
305 1.27979
310 1.2421
315 1.26666
320 1.32918
325 1.35199
330 1.29472
335 1.45358
340 1.52438
345 1.7285
350 1.9099
355 1.79592
360 1.81049
365 1.92937
370 2.00332
375 2.0996
380 2.05985
385 2.23698
390 2.45927
395 2.60243
400 2.63666
405 2.85948
410 3.14236
415 3.35391
420 3.3357
425 3.79811
430 3.92749
435 4.2034
440 4.57905
445 5.03442
450 5.76268
455 6.81722
460 8.10819
465 10.3009
470 12.9681
475 16.6118
480 23.9137
485 37.1716
490 1537.25
495 9999.9
500 9999.9
505 5025.21
510 608.796
515 91.0896
520 25.2814
525 14.3619
530 10.3235
535 7.6575
540 6.42884
545 5.86813
550 5.70131
555 5.38281
560 4.68588
565 4.44127
570 3.89724
575 3.4711
580 3.19451
585 3.01651
590 2.83939
595 2.47238
600 2.78399
Ex : 508
200 0.987949
205 0.930735
210 0.919151
215 0.977286
220 0.933916
225 1.02018
230 0.942609
235 0.925134
240 0.905393
245 1.62995
250 2.80821
255 1.39286
260 1.05475
265 1.01126
270 1.11399
275 1.06633
280 1.02712
285 1.05113
290 1.16364
295 1.15145
300 1.297
305 1.12264
310 1.18624
315 1.28939
320 1.40531
325 1.33436
330 1.39365
335 1.43771
340 1.5355
345 1.66485
350 1.75419
355 1.76692
360 1.80942
365 1.97419
370 1.91656
375 2.00118
380 2.11131
385 2.26113
390 2.31916
395 2.51917
400 2.73273
405 2.82532
410 3.14401
415 3.0811
420 3.41348
425 3.53853
430 3.61779
435 4.13255
440 4.26423
445 4.96319
450 5.69181
455 6.06859
460 7.21742
465 9.05625
470 10.6156
475 12.8691
480 16.9272
485 24.1427
490 38.0911
495 1646.98
500 9999.9
505 9999.9
510 5436.1
515 656.521
520 96.4323
525 25.7234
530 14.4725
535 10.3117
540 7.66963
545 6.49235
550 5.58865
555 5.49643
560 5.27203
565 4.78079
570 4.28422
575 3.64614
580 3.14519
585 3.19561
590 2.7909
595 2.75151
600 3.44862
Ex : 513
200 0.937409
205 0.951257
210 0.852137
215 0.937387
220 0.904488
225 0.93954
230 1.04302
235 0.944701
240 1.0094
245 1.0797
250 4.71034
255 3.78872
260 1.37654
265 1.09222
270 1.0501
275 1.12981
280 1.115
285 1.07097
290 1.07304
295 1.14482
300 1.20156
305 1.24823
310 1.24998
315 1.22062
320 1.31132
325 1.47713
330 1.42947
335 1.46484
340 1.41423
345 1.39212
350 1.53809
355 1.68965
360 1.98298
365 1.82632
370 1.81863
375 1.8379
380 1.92203
385 2.07146
390 2.21339
395 2.45768
400 2.75284
405 2.78752
410 2.98562
415 3.30438
420 3.32741
425 3.18916
430 3.50656
435 3.98019
440 4.10547
445 4.51067
450 5.03039
455 5.51455
460 6.28488
465 7.59442
470 8.4384
475 10.2205
480 12.7832
485 16.6866
490 24.3859
495 37.3983
500 1497.91
505 9999.9
510 9999.9
515 5658.45
520 682.134
525 99.8054
530 26.2135
535 14.5255
540 10.2933
545 7.7562
550 6.56036
555 5.89094
560 5.44441
565 5.13522
570 4.71051
575 4.0723
580 3.45723
585 3.30458
590 2.89849
595 2.86033
600 2.21683
Ex : 518
200 0.850097
205 0.904207
210 0.950154
215 0.985455
220 0.999404
225 0.915422
230 0.992624
235 0.934335
240 1.02251
245 1.01787
250 3.56907
255 9.46586
260 2.9345
265 1.26788
270 1.1521
275 1.11175
280 1.04304
285 1.10072
290 1.16392
295 1.1619
300 1.08517
305 1.26493
310 1.28828
315 1.46154
320 1.48285
325 1.47318
330 1.37664
335 1.46306
340 1.52758
345 1.6061
350 1.59448
355 1.68436
360 1.83278
365 1.80924
370 2.06138
375 1.85015
380 1.98952
385 2.13292
390 2.05019
395 2.41729
400 2.37928
405 2.51865
410 2.70538
415 2.91705
420 2.99008
425 3.14939
430 3.41322
435 3.63907
440 3.69996
445 4.47676
450 4.54942
455 5.31778
460 5.5886
465 6.52754
470 7.4975
475 8.47722
480 9.98275
485 12.1371
490 16.7264
495 23.6984
500 37.1241
505 1497.77
510 9999.9
515 9999.9
520 5700.46
525 687.184
530 99.9135
535 25.9722
540 14.8056
545 10.453
550 7.60135
555 6.34421
560 6.00485
565 5.67058
570 4.99094
575 4.4479
580 4.01496
585 3.54274
590 3.22503
595 2.62912
600 2.69314
Ex : 523
200 1.04637
205 1.02507
210 0.873394
215 0.869849
220 0.830121
225 0.950161
230 0.845788
235 1.01468
240 0.96566
245 0.936431
250 1.38314
255 12.2859
260 9.04429
265 2.10119
270 1.30161
275 1.04831
280 1.15315
285 1.25554
290 1.37803
295 1.23144
300 1.23664
305 1.18555
310 1.18726
315 1.17634
320 1.46061
325 1.33389
330 1.47727
335 1.34941
340 1.30555
345 1.50089
350 1.52605
355 1.5232
360 1.69504
365 1.75104
370 1.87882
375 1.83249
380 2.01739
385 2.02983
390 2.02241
395 2.47628
400 2.3864
405 2.43056
410 2.59416
415 2.85259
420 3.22534
425 3.15334
430 3.28597
435 3.51451
440 3.81206
445 4.03757
450 4.31314
455 4.67594
460 5.32351
465 6.13347
470 6.98062
475 7.03358
480 8.33939
485 10.1907
490 12.9076
495 16.8868
500 22.9123
505 36.4723
510 1368.02
515 9999.9
520 9999.9
525 5947.32
530 715.384
535 103.237
540 26.3868
545 14.8277
550 10.363
555 7.65267
560 6.30389
565 5.85262
570 5.16638
575 4.84894
580 4.39287
585 3.76902
590 3.31218
595 3.27859
600 1.24675
Ex : 528
200 0.993655
205 0.93353
210 0.875753
215 0.845513
220 0.886318
225 0.992651
230 0.918836
235 0.8913
240 0.829899
245 0.88891
250 1.04406
255 7.15902
260 20.1919
265 5.15272
270 1.66916
275 1.18827
280 1.03481
285 1.18969
290 1.14472
295 1.23825
300 1.26923
305 1.18813
310 1.17899
315 1.34471
320 1.46367
325 1.53177
330 1.5378
335 1.33875
340 1.39922
345 1.43264
350 1.61777
355 1.60866
360 1.70669
365 1.76864
370 1.83976
375 1.88203
380 2.05244
385 2.04361
390 2.02336
395 2.17218
400 2.32609
405 2.48803
410 2.40284
415 2.59685
420 2.81569
425 2.9666
430 3.23177
435 3.39881
440 3.7918
445 4.16964
450 4.13902
455 4.5569
460 5.20327
465 5.83314
470 6.13902
475 6.62219
480 7.28083
485 8.45761
490 10.2114
495 12.6009
500 16.9412
505 23.4455
510 36.3946
515 1303.71
520 9999.9
525 9999.9
530 5796.03
535 699.11
540 101.294
545 26.3757
550 14.6119
555 10.6268
560 7.5344
565 6.14367
570 5.98184
575 5.56544
580 4.75176
585 4.20229
590 3.62053
595 3.1842
600 3.16432
Ex : 533
200 0.833473
205 0.85758
210 0.984762
215 1.03047
220 0.869331
225 0.850348
230 1.03675
235 0.975881
240 1.03608
245 1.07881
250 1.00929
255 1.97499
260 23.0778
265 17.7119
270 3.25783
275 1.44525
280 1.33318
285 1.38445
290 1.42332
295 1.2924
300 1.18891
305 1.2548
310 1.40984
315 1.47177
320 1.3956
325 1.23092
330 1.49759
335 1.58867
340 1.52539
345 1.46113
350 1.57152
355 1.61229
360 1.75022
365 1.7358
370 1.77174
375 1.75736
380 1.82676
385 2.1403
390 2.34228
395 2.15012
400 2.04171
405 2.51087
410 2.686
415 2.61967
420 2.62088
425 2.86989
430 3.08178
435 3.34078
440 3.73141
445 3.75337
450 4.05407
455 4.25992
460 4.79814
465 5.20147
470 5.41076
475 6.13078
480 6.82484
485 7.03701
490 8.65145
495 9.9267
500 12.6911
505 16.5616
510 22.9957
515 35.6924
520 1317.93
525 9999.9
530 9999.9
535 6040.97
540 726.604
545 104.413
550 26.5762
555 14.6306
560 10.4205
565 7.22383
570 6.05101
575 5.41572
580 4.95846
585 4.60502
590 4.08073
595 3.87361
600 3.282
Ex : 538
200 0.962741
205 1.11585
210 0.994674
215 1.05832
220 1.05583
225 0.991691
230 1.02406
235 1.09565
240 0.943869
245 1.05772
250 1.02754
255 1.01634
260 11.5333
265 40.0478
270 10.5512
275 2.24706
280 1.23705
285 1.35212
290 1.47393
295 1.51625
300 1.32926
305 1.45658
310 1.46562
315 1.38231
320 1.45109
325 1.38115
330 1.49284
335 1.69548
340 1.4651
345 1.42469
350 1.64143
355 1.64283
360 1.43451
365 1.60317
370 1.63045
375 1.94259
380 2.08028
385 1.94866
390 2.12716
395 2.23652
400 2.23255
405 2.4329
410 2.39615
415 2.5566
420 2.53903
425 2.83167
430 3.03733
435 3.16162
440 3.39428
445 3.76109
450 3.86026
455 4.05263
460 4.42632
465 4.82954
470 5.29172
475 5.5391
480 5.67323
485 6.29363
490 7.55858
495 8.21593
500 9.70243
505 12.7225
510 16.5706
515 22.7326
520 34.7392
525 1149.09
530 9999.9
535 9999.9
540 6452.12
545 777.194
550 109.891
555 26.8589
560 14.2611
565 10.344
570 7.34428
575 6.08281
580 5.08591
585 4.88329
590 4.66732
595 4.10584
600 4.24403
Ex : 543
200 1.12603
205 0.950254
210 1.01179
215 0.924977
220 1.02626
225 1.15449
230 0.986124
235 0.999336
240 1.05158
245 0.82744
250 1.03053
255 1.15076
260 2.60525
265 42.4781
270 35.532
275 5.61304
280 1.64419
285 1.29235
290 1.45795
295 1.40701
300 1.45493
305 1.59963
310 1.37446
315 1.31246
320 1.36761
325 1.53966
330 1.4854
335 1.51776
340 1.40636
345 1.59493
350 1.59809
355 1.49737
360 1.81874
365 1.68184
370 1.77494
375 1.7789
380 2.01092
385 1.97189
390 2.04753
395 2.19892
400 2.27426
405 2.31432
410 2.53483
415 2.34764
420 2.40506
425 2.66292
430 2.85064
435 3.17889
440 3.36595
445 3.28581
450 3.88175
455 4.22553
460 4.48039
465 4.35508
470 4.78311
475 5.04136
480 5.35122
485 5.91705
490 6.19494
495 7.10578
500 7.96623
505 9.53122
510 12.3797
515 15.7028
520 22.8975
525 34.5488
530 1060.9
535 9999.9
540 9999.9
545 6714.43
550 809.983
555 113.474
560 27.367
565 14.1499
570 9.44637
575 6.97484
580 5.76218
585 5.23371
590 4.95414
595 4.38647
600 4.56896
Ex : 548
200 1.03948
205 1.04426
210 1.07022
215 1.00198
220 1.02052
225 0.981485
230 1.05982
235 1.03441
240 1.08656
245 1.12718
250 1.08606
255 1.10775
260 1.21371
265 20.2211
270 69.2041
275 17.1121
280 3.19393
285 1.74873
290 1.56729
295 1.52113
300 1.52179
305 1.51825
310 1.42886
315 1.29317
320 1.37798
325 1.50987
330 1.54198
335 1.49015
340 1.51336
345 1.58759
350 1.52769
355 1.64541
360 1.61926
365 1.74436
370 1.86419
375 1.80067
380 1.63153
385 1.83814
390 1.981
395 2.1467
400 2.14473
405 2.32535
410 2.33066
415 2.14257
420 2.58129
425 2.64238
430 2.58647
435 2.89943
440 2.91746
445 3.27626
450 3.45278
455 3.72595
460 4.00794
465 4.54678
470 4.55957
475 4.76297
480 5.29711
485 5.31082
490 5.52043
495 6.42167
500 7.12194
505 8.2015
510 9.5437
515 12.6261
520 16.0477
525 22.0003
530 34.4543
535 1165.17
540 9999.9
545 9999.9
550 6541.81
555 786.978
560 110.284
565 26.7757
570 13.4091
575 9.11931
580 6.86049
585 5.34524
590 5.13693
595 4.95406
600 5.19663
Ex : 553
200 1.00326
205 0.994449
210 0.8633
215 1.06396
220 1.06969
225 0.944596
230 1.02329
235 1.14295
240 1.05188
245 1.1119
250 0.971386
255 1.12553
260 1.24871
265 3.68173
270 67.887
275 57.0528
280 8.50352
285 2.18303
290 1.52859
295 1.4157
300 1.61049
305 1.50005
310 1.44634
315 1.47413
320 1.41743
325 1.60211
330 1.61717
335 1.40496
340 1.59688
345 1.56741
350 1.62599
355 1.67275
360 1.66869
365 1.73321
370 1.78364
375 1.65888
380 1.7631
385 1.88587
390 1.82654
395 2.02129
400 2.26145
405 2.21665
410 2.2967
415 2.41502
420 2.37089
425 2.62176
430 2.86401
435 2.71389
440 3.02179
445 2.93421
450 3.57016
455 3.616
460 4.24315
465 4.17376
470 4.2492
475 4.57935
480 4.92566
485 5.26333
490 5.67095
495 5.58622
500 6.07981
505 6.98805
510 7.71974
515 9.6964
520 12.3957
525 15.8396
530 21.3014
535 33.6196
540 1018.18
545 9999.9
550 9999.9
555 6725.19
560 812.375
565 113.151
570 26.2561
575 12.9133
580 8.89347
585 6.49259
590 4.95604
595 4.94989
600 3.02946
Ex : 558
200 0.989855
205 0.851374
210 0.956361
215 1.05034
220 0.990612
225 1.00396
230 1.03647
235 1.05434
240 0.997752
245 0.938792
250 0.98614
255 1.11779
260 1.15651
265 1.21316
270 29.2127
275 107.195
280 26.8468
285 4.41371
290 1.83182
295 1.5232
300 1.57968
305 1.53507
310 1.55918
315 1.67914
320 1.54287
325 1.57419
330 1.57225
335 1.58631
340 1.72468
345 1.78062
350 1.68156
355 1.56072
360 1.71032
365 1.67956
370 1.69057
375 1.73984
380 1.9169
385 1.9391
390 1.94095
395 1.91554
400 1.97657
405 2.12813
410 2.26879
415 2.23252
420 2.23507
425 2.42803
430 2.7216
435 2.98121
440 2.95435
445 3.02166
450 3.44863
455 3.50572
460 3.89908
465 4.33984
470 4.30737
475 4.19316
480 4.29966
485 4.52195
490 5.20265
495 5.57925
500 5.78217
505 6.02829
510 6.95813
515 7.93943
520 9.49855
525 12.0087
530 15.761
535 21.1422
540 32.3003
545 965.901
550 9999.9
555 9999.9
560 6959.02
565 839.142
570 115.609
575 26.0101
580 12.3778
585 8.55886
590 6.16341
595 4.69435
600 3.66198
Ex : 563
200 1.01856
205 1.07018
210 1.02581
215 1.1077
220 1.14552
225 1.01112
230 1.0297
235 1.13104
240 1.03607
245 1.05923
250 1.05488
255 1.06339
260 1.13635
265 1.3597
270 4.48985
275 97.5356
280 80.6788
285 11.3691
290 2.51713
295 1.71403
300 1.5448
305 1.42954
310 1.58357
315 1.46857
320 1.52654
325 1.59708
330 1.74038
335 1.72448
340 1.56776
345 1.6571
350 1.56257
355 1.43744
360 1.67112
365 1.58795
370 1.77459
375 1.72089
380 1.72754
385 1.7087
390 1.79117
395 1.93604
400 2.04158
405 1.93532
410 2.25284
415 2.24461
420 2.27896
425 2.43928
430 2.28314
435 2.47591
440 2.93008
445 2.98841
450 3.26167
455 3.4301
460 3.45134
465 4.00906
470 3.95265
475 4.24829
480 4.34259
485 4.31662
490 4.77053
495 4.66141
500 5.32188
505 5.5576
510 6.45305
515 6.78156
520 7.85358
525 9.10985
530 11.9014
535 15.3552
540 21.2848
545 32.7505
550 947.065
555 9999.9
560 9999.9
565 6839.54
570 823.49
575 112.258
580 24.8093
585 11.6777
590 8.27474
595 5.39588
600 4.83558
Ex : 568
200 1.11929
205 1.07113
210 0.985584
215 1.06897
220 1.04704
225 1.002
230 1.01717
235 1.01376
240 1.1311
245 1.05501
250 1.09378
255 1.1177
260 1.1006
265 1.10043
270 1.20545
275 35.6977
280 143.532
285 38.1196
290 5.65603
295 1.88974
300 1.53303
305 1.60022
310 1.50416
315 1.48087
320 1.59017
325 1.51026
330 1.56173
335 1.68279
340 1.60575
345 1.45451
350 1.61788
355 1.71796
360 1.75655
365 1.58049
370 1.65015
375 1.78093
380 1.77739
385 1.9422
390 2.03102
395 1.92229
400 1.91421
405 1.9881
410 2.20473
415 2.07034
420 2.30999
425 2.46947
430 2.18513
435 2.52572
440 2.7035
445 3.02852
450 2.99948
455 3.15089
460 3.59385
465 3.96834
470 3.83363
475 3.98868
480 4.01366
485 4.3594
490 4.26466
495 4.56289
500 5.00523
505 5.52555
510 5.7259
515 6.16879
520 6.4972
525 7.6074
530 8.6851
535 11.2002
540 14.8486
545 20.4378
550 32.0156
555 732.921
560 9999.9
565 9999.9
570 7111.82
575 859.836
580 114.946
585 23.3556
590 11.1257
595 7.15179
600 5.66846
Ex : 573
200 1.07204
205 1.15273
210 1.11562
215 1.01661
220 0.983126
225 1.16072
230 1.0777
235 0.990105
240 1.0144
245 1.00482
250 1.06687
255 1.05078
260 0.987388
265 1.17177
270 1.29158
275 4.47874
280 115.984
285 108.28
290 15.0442
295 2.9666
300 1.41866
305 1.3479
310 1.47676
315 1.4841
320 1.38912
325 1.46123
330 1.47612
335 1.33109
340 1.5305
345 1.47954
350 1.60784
355 1.54344
360 1.53668
365 1.60153
370 1.54994
375 1.67662
380 1.67002
385 1.8657
390 1.84116
395 1.77721
400 1.8345
405 2.22693
410 1.92307
415 2.18269
420 2.16872
425 2.28296
430 2.27782
435 2.63794
440 2.49499
445 2.67738
450 3.13184
455 3.07885
460 3.27653
465 3.27876
470 3.42316
475 3.32895
480 3.81826
485 4.06304
490 4.19127
495 4.19008
500 4.48459
505 4.65673
510 4.75046
515 5.29808
520 5.90487
525 6.30904
530 7.33621
535 9.03787
540 11.0298
545 14.5766
550 20.3639
555 29.9442
560 621.762
565 9999.9
570 9999.9
575 6907.73
580 833.712
585 109.865
590 22.9473
595 9.83134
600 7.74803
Ex : 578
200 0.958521
205 1.04541
210 0.856652
215 1.00106
220 1.11991
225 0.974361
230 1.02187
235 0.912145
240 0.931518
245 0.916755
250 1.0302
255 0.879614
260 1.08824
265 0.919463
270 1.15004
275 1.26096
280 41.7073
285 173.11
290 47.63
295 6.94644
300 1.92477
305 1.52697
310 1.27189
315 1.6422
320 1.49557
325 1.41788
330 1.2878
335 1.5265
340 1.4631
345 1.36952
350 1.47248
355 1.61425
360 1.4661
365 1.6674
370 1.41696
375 1.60934
380 1.62494
385 1.75635
390 1.8747
395 1.96205
400 1.76443
405 2.083
410 1.79482
415 1.87958
420 1.7948
425 1.85185
430 2.14158
435 2.42095
440 2.52016
445 2.36746
450 2.55166
455 2.85829
460 3.28127
465 3.54166
470 3.62262
475 3.59146
480 3.45598
485 3.71779
490 3.69863
495 4.06029
500 3.82019
505 4.29298
510 4.70723
515 4.78288
520 5.12643
525 5.73479
530 5.93921
535 6.88925
540 8.56998
545 10.732
550 14.2729
555 19.1746
560 28.6853
565 555.913
570 9999.9
575 9999.9
580 6160.87
585 740.408
590 97.7241
595 20.1449
600 12.874
Ex : 583
200 0.889794
205 0.917982
210 0.879742
215 0.869999
220 0.932797
225 0.868495
230 0.971367
235 0.791889
240 0.865988
245 0.896144
250 0.711762
255 0.892578
260 1.00794
265 0.940048
270 0.980715
275 0.977698
280 4.98723
285 135.06
290 128.746
295 17.8744
300 3.29951
305 1.47941
310 1.41118
315 1.44026
320 1.59367
325 1.4221
330 1.58618
335 1.4394
340 1.36085
345 1.28455
350 1.29504
355 1.45735
360 1.35082
365 1.67609
370 1.37105
375 1.51126
380 1.63728
385 1.90903
390 1.73549
395 1.79391
400 1.7066
405 1.90004
410 1.91386
415 1.68996
420 1.82687
425 2.04428
430 2.06492
435 2.02924
440 2.06742
445 2.36349
450 2.25127
455 2.56383
460 3.14239
465 3.23094
470 3.20361
475 3.09846
480 3.3871
485 3.47944
490 3.44829
495 3.64087
500 3.34502
505 3.91097
510 4.02434
515 4.21117
520 4.54883
525 5.00974
530 5.40556
535 6.12013
540 7.12394
545 7.92802
550 10.5602
555 13.5569
560 18.1164
565 26.5961
570 492.715
575 9999.9
580 9999.9
585 5235.63
590 630.432
595 83.8256
600 17.5149
Ex : 588
200 0.869362
205 1.00614
210 0.852023
215 0.868742
220 0.945027
225 0.831453
230 0.822903
235 0.807585
240 0.856732
245 0.928183
250 0.82398
255 0.927195
260 1.03048
265 0.920421
270 0.926442
275 1.126
280 1.46251
285 45.2986
290 205.476
295 57.7436
300 8.09795
305 1.91162
310 1.51619
315 1.26999
320 1.43785
325 1.33783
330 1.20366
335 1.20598
340 1.11262
345 1.23839
350 1.1874
355 1.26168
360 1.4878
365 1.19497
370 1.46923
375 1.4921
380 1.56463
385 1.58417
390 1.55886
395 1.75592
400 1.80284
405 1.59723
410 1.89125
415 1.69027
420 1.78095
425 1.65943
430 1.79423
435 1.76391
440 2.08631
445 2.16101
450 1.92521
455 2.25548
460 2.56209
465 3.17303
470 2.68702
475 3.08733
480 2.99541
485 3.32768
490 3.37264
495 3.31441
500 3.32542
505 3.38113
510 3.72137
515 4.00916
520 4.48047
525 4.49338
530 4.70117
535 4.77981
540 5.6693
545 6.29868
550 7.84501
555 9.59608
560 13.3016
565 17.5875
570 24.3226
575 439.842
580 9999.9
585 9999.9
590 4896.47
595 587.569
600 78.9681
Ex : 593
200 0.776055
205 0.841698
210 0.793104
215 0.954802
220 0.780437
225 0.819483
230 0.821856
235 0.643676
240 0.823324
245 0.702236
250 0.773907
255 0.882049
260 0.817377
265 0.742833
270 0.814983
275 0.984291
280 1.06414
285 5.11759
290 155.628
295 156.328
300 21.7958
305 3.49146
310 1.34614
315 1.24593
320 1.17893
325 1.4339
330 1.39512
335 1.41131
340 1.25294
345 1.37976
350 1.38248
355 1.11032
360 1.2007
365 1.31088
370 1.56358
375 1.47714
380 1.66193
385 1.47845
390 1.47629
395 1.61213
400 1.5018
405 1.63137
410 1.43398
415 1.63697
420 1.53572
425 1.61901
430 1.71106
435 1.89138
440 1.94347
445 1.9786
450 2.13436
455 2.34492
460 2.35064
465 2.62942
470 2.84015
475 2.82907
480 2.77388
485 2.74291
490 3.1174
495 3.2511
500 3.38669
505 3.20783
510 3.48
515 3.4609
520 3.8711
525 4.10635
530 4.46165
535 4.37052
540 5.1438
545 5.34825
550 6.37314
555 7.79404
560 8.64483
565 11.8504
570 15.7372
575 22.1969
580 388.832
585 9999.9
590 9999.9
595 4444.42
600 652.202
Ex : 598
200 0.692351
205 0.916266
210 0.797487
215 0.78862
220 0.797423
225 0.669376
230 0.746818
235 0.827443
240 0.820034
245 0.809188
250 0.973565
255 0.823516
260 0.762543
265 0.839043
270 0.906719
275 0.905274
280 0.936391
285 1.25752
290 53.083
295 242.357
300 71.8226
305 9.44919
310 2.20753
315 1.21538
320 1.35688
325 1.30524
330 1.33054
335 1.27863
340 1.18506
345 1.15326
350 1.36066
355 1.40131
360 1.61217
365 1.46156
370 1.71385
375 1.5096
380 1.45141
385 1.46728
390 1.49703
395 1.58933
400 1.59453
405 1.72648
410 1.68729
415 1.53527
420 1.58977
425 1.71372
430 1.64345
435 1.69966
440 1.56788
445 1.87241
450 1.92462
455 2.01638
460 2.00508
465 2.27376
470 2.48455
475 2.82837
480 2.90427
485 2.9141
490 3.01085
495 3.18881
500 2.7622
505 3.11587
510 3.49887
515 3.37999
520 3.17003
525 3.65226
530 4.09923
535 4.27397
540 4.46939
545 4.62562
550 5.24475
555 6.1294
560 7.58758
565 8.76656
570 10.8269
575 14.338
580 19.6526
585 387.132
590 9118.92
595 9999.9
600 9749.04
Ex : 603
200 0.828341
205 0.669489
210 0.810067
215 0.70662
220 0.741921
225 0.692409
230 0.583338
235 0.83656
240 0.863995
245 0.793475
250 0.778464
255 0.834975
260 0.860914
265 0.798527
270 0.669625
275 0.716719
280 0.844901
285 1.06933
290 4.99783
295 177.965
300 195.541
305 27.4174
310 4.21069
315 1.58085
320 1.10232
325 1.25016
330 1.42813
335 1.35443
340 1.35691
345 1.20192
350 1.26784
355 1.12873
360 1.65099
365 1.26627
370 1.376
375 1.33848
380 1.44682
385 1.48053
390 1.35607
395 1.49583
400 1.53525
405 1.60432
410 1.5527
415 1.66366
420 1.80782
425 1.77709
430 1.69941
435 1.70195
440 1.65468
445 1.92891
450 2.01391
455 1.94947
460 2.21523
465 2.64601
470 2.4843
475 2.58832
480 2.91185
485 2.92461
490 2.68992
495 2.80234
500 3.09753
505 3.19108
510 2.91304
515 3.03313
520 2.99774
525 3.14848
530 3.4748
535 3.63007
540 3.8334
545 4.07649
550 4.73356
555 5.47204
560 5.90586
565 7.29131
570 8.25203
575 10.0058
580 11.8076
585 17.2901
590 329.837
595 7934.57
600 9999.9
